File: xy_files/Fe2O3.xy
# 2-theta (degrees)	Intensity
21.017	1.48946
22.8783	0.0185202
24.4577	0.686925
27.0512	7.4119
33.7365	100
34.0543	17.9774
35.653	16.1745
36.0172	0.966237
38.5883	0.0602433
39.0915	3.63467
39.674	1.67483
40.3608	0.572809
41.4077	6.02223
41.4234	0.0271338
42.7861	0.0231938
42.8391	7.15789
45.3333	3.22487
46.2889	0.471093
46.7383	13.4177
49.3447	3.93387
50.1284	17.6312
51.5814	6.82718
52.7965	0.791209
53.4446	0.482639
53.652	0.835576
55.4391	2.38166
55.7779	1.62687
56.0411	0.332074
56.7964	7.85124
57.6295	0.0703549
58.9541	1.09816
59.0801	11.5074
60.1392	11.173
60.7504	12.0629
62.1616	0.774032
62.35	1.32534
62.5179	0.113953
62.8241	22.0157
62.9337	0.0862058
64.7414	0.0588665
65.2539	0.463174
65.9811	0.00493279
65.9978	0.393526
66.3428	0.486435
67.028	3.72742
67.2255	0.384761
68.9986	0.0911695
70.3156	0.15843
70.8462	0.295635
70.9495	7.99703
71.6977	0.611739
72.8806	1.53725
73.0225	0.316317
73.1433	0.0688913
73.8579	0.80871
74.504	0.682608
75.3677	0.788509
75.5078	1.70338
75.5401	0.507757
75.6701	0.0126205
76.387	1.44657
76.7164	0.104769
77.2485	0.0181884
78.0314	0.538184
78.3306	8.52454
78.9067	0.0699003
79.1345	0.0196699
79.1809	0.230825
80.0528	0.712426
80.1202	0.0960331
81.4078	1.57851
82.124	0.164458
82.6051	0.0101532
82.7273	1.20588
83.0788	0.212488
83.4691	2.70602
83.5673	0.00171324
83.8619	1.59191
83.9983	0.145108
84.7153	0.189623
84.8266	0.02617
85.0322	0.0919835
85.4829	2.31387
85.6635	2.13025
85.7766	0.00127058
86.4634	0.137378
86.6125	1.01021
87.253	1.66373
87.4941	0.3926
88.2594	0.558165
89.1173	0.987815
89.9949	0.444686