File: xy_files/Fe3O4.xy
# 2-theta (degrees)	Intensity
17.3766	0.024014
18.101	42.5271
18.1393	42.4261
21.7214	19.0772
23.2551	0.0195794
27.0546	0.0526041
29.2342	7.69234
29.8952	8.59203
31.198	0.0263128
32.0097	0.0117446
35.1698	9.00282
35.1904	8.49454
36.0302	5.00977
36.0908	5.58046
36.6746	18.1935
36.7542	18.2831
37.2565	33.0779
38.3944	0.00561512
40.2341	0.122693
42.1715	0.0199803
42.3052	100.0
43.332	0.109449
44.2765	44.2382
45.8947	1.21387
45.9444	1.06539
46.509	0.0471694
47.2984	0.0108518
47.4957	2.66613
47.5441	2.46534
48.0116	4.56119
48.0756	4.70006
48.8963	0.0924
49.2595	0.0398004
51.3581	0.0860646
53.1628	0.0202454
53.8827	1.35645
53.8955	0.0683428
54.0005	1.2601
54.344	2.93805
54.4202	0.0400082
55.1069	0.115557
55.7422	4.88963
55.7853	4.73564
56.3174	0.395188
56.446	0.406314
56.677	0.0539576
57.502	0.069084
57.6612	0.0323723
58.3389	1.76273
58.4088	1.8769
58.8265	0.0362463
60.1791	0.00212314
60.6251	13.5035
61.6396	0.0310102
62.1113	13.8494
62.302	0.0432254
62.531	0.00137046
62.8463	25.8396
62.9532	25.377
65.0688	2.22374
65.07	0.00382848
65.1434	1.0751
65.1868	2.41476
65.2483	1.12129
65.2749	2.00472
65.288	2.00919
65.6658	0.0222026
65.8314	0.0166105
66.6248	1.36144
66.9314	1.63551
66.9645	0.00928708
66.9961	1.46855
68.8413	0.605712
68.8701	0.0369228
68.9631	0.00645968
69.0556	0.792438
70.0996	1.13466
70.5234	0.00390672
71.4747	0.026814
72.1862	0.012957
73.3044	5.66534
73.4038	5.70155
73.5466	0.00398337
73.663	0.03422
73.9508	1.03666
73.9879	1.12488
74.2647	0.408105
74.2674	0.00597115
74.3479	4.90655
74.3973	4.93249
74.407	0.0442305
74.4501	0.35955
76.4185	2.2824
76.5653	2.31697
76.7433	0.0155091
76.8271	4.37131
77.5513	0.0582952
77.7516	0.0324362
77.9293	0.00303983
77.9853	5.81896
78.1799	5.66027
78.5397	0.00475116
79.2392	0.877074
79.2997	0.833373
79.4127	12.0914
80.5763	0.462433
80.6124	0.425294
81.0255	0.00651443
81.0607	0.00414096
81.7611	0.00358903
82.0602	1.52151
82.2404	1.53035
83.0854	0.0078209
84.0974	0.0171157
84.159	0.699445
84.3025	0.758655
84.3144	0.267832
84.3981	0.334634
84.5854	0.00496363
84.6726	0.0182279
85.6929	0.478056
85.8838	0.424983
86.7211	0.651255
86.7315	0.00214309
86.8165	0.615502
86.9247	0.294156
86.9843	0.254576
87.0422	0.0378702
87.1575	0.00702062
87.3785	0.541667
87.5572	0.578681
87.6108	0.0219853
88.7195	0.250328
88.8266	0.255846
88.8876	0.0163542
89.1312	0.0482236