File: xy_files/Fe4O13.xy
# 2-theta (degrees)	Intensity
15.9939	0.285552
17.8347	1.41435
18.1304	3.41531
22.2155	100.0
23.162	95.0419
28.1145	13.4706
28.8223	3.81261
29.3853	1.76165
32.3105	33.4892
32.5099	0.0150676
35.6269	12.9762
36.1208	47.5454
36.5363	3.69719
36.7356	41.5817
36.8619	0.466024
37.8945	24.8392
43.3502	55.4781
43.7075	17.6329
44.2781	3.58083
44.3641	0.180585
44.4087	0.461371
45.326	22.5772
45.9859	2.87395
46.9927	0.872955
47.3448	20.464
49.1998	1.03061
49.3362	0.940422
50.1981	2.36185
50.5536	0.229203
50.9847	0.158207
51.5034	15.1494
52.8896	18.4828
54.1913	15.1133
55.4242	0.319949
55.9724	11.6443
56.416	0.128023
57.7491	0.784289
58.1274	4.44083
58.9424	0.209474
59.5655	0.49631
59.7034	27.7888
60.5137	0.585437
60.7039	0.00120941
60.8635	0.0447957
60.9639	22.4614
61.2451	0.802208
61.3846	0.0403121
61.4668	0.180221
62.1779	0.143105
63.0123	10.589
63.4212	11.3867
64.7893	0.0175125
65.327	0.161878
66.5526	0.00299583
66.8248	0.0984478
66.8901	0.541527
67.6256	11.2345
68.0872	29.9838
69.2255	0.466893
70.0708	0.0455967
70.6151	0.764554
70.7795	2.31054
70.8456	1.89901
73.6047	0.0856437
74.0639	0.524661
74.3019	0.589094
74.7718	8.2001
75.1534	0.396988
75.445	2.94213
75.8134	0.0325125
75.8778	0.936373
75.9719	0.164665
76.3082	0.0276173
76.6379	1.9946
76.6592	0.062719
76.9084	0.0167029
77.6478	8.08892
77.8066	0.832728
78.1344	2.69112
78.4436	3.43876
79.0493	0.0029168
79.3892	0.245326
79.6506	0.148182
80.2238	0.034193
80.3188	0.980001
80.5964	0.126863
80.992	7.11703
80.9955	0.764724
81.3441	5.40726
82.3387	9.80771
82.4504	5.16614
83.047	1.2384
84.5183	0.0371338
85.2769	8.08126
85.343	0.0492505
85.5238	0.0523027
85.9568	0.241692
86.4936	0.109627
87.4821	0.12982
89.1449	0.0976971
89.4559	2.8548
89.6013	0.00856963
89.6735	0.184664