File: xy_files/Fe5O8.xy
# 2-theta (degrees)	Intensity
14.88	13.6644
18.2501	0.471109
23.6284	20.024
25.9211	14.4821
30.0186	37.6732
31.8865	0.931127
33.6613	4.57809
35.3571	100.0
36.9849	2.40042
38.5534	1.98094
40.0699	1.52105
42.9687	14.7987
44.3602	0.874481
45.7179	1.41027
47.0449	0.0111477
49.6173	6.1408
50.867	0.0413926
53.3026	13.748
54.4917	1.0537
55.6633	1.5537
56.8189	30.6817
59.0859	3.58624
60.1992	5.8209
62.3899	43.0631
63.4688	0.929719
64.5377	1.33981
65.5971	0.0362971
66.6477	0.0113013
67.6901	1.04124
68.7247	2.15577
70.7728	5.4904
71.7872	1.01758
72.7957	0.367317
73.7987	9.70027
74.7966	2.08297
75.7899	1.97288
76.7788	0.125229
78.7449	1.63289
79.7228	0.497105
80.6977	0.624258
81.6699	0.00886583
83.6073	0.668484
84.5732	1.71003
86.5005	5.7023
87.4625	0.111949
88.4238	0.547084
89.3847	15.5807