File: xy_files/Mg(FeO2)4.xy
# 2-theta (degrees)	Intensity
17.9575	100.0
18.4575	5.37057
21.2005	2.05619
29.8458	0.674786
30.4677	0.905577
35.0498	0.438912
35.5902	0.92832
35.8578	32.394
36.3761	5.73422
37.4169	12.9828
43.1737	67.8419
46.469	0.110742
47.112	9.02793
47.7483	0.139128
48.1598	0.501577
48.9931	0.494581
52.587	0.178186
53.758	0.410945
54.1444	0.149303
55.8357	1.13356
56.5876	14.9916
57.1472	0.607157
57.5184	0.339108
62.0001	17.4861
63.4064	18.5122
64.9454	0.230181
65.6256	0.149353
65.6332	0.255909
66.4878	13.0216
66.6581	0.245953
66.9904	0.202317
67.6676	0.120088
70.6471	0.0571654
71.6376	0.126834
72.6007	0.0631289
74.0611	3.21497
74.5551	0.101564
75.0407	3.19342
75.3567	4.85659
76.0016	2.07986
77.2578	2.35596
79.8084	8.25024
80.7383	5.40028
81.5288	0.120998
82.1531	0.0629992
82.1601	0.0398085
82.6329	1.70374
83.1052	0.258943
84.0414	0.064324
85.2689	0.0496829
86.8348	0.0851479
87.7524	0.0491708
87.7732	0.0358495
88.0858	0.0798615
88.6902	0.0288805
89.4714	2.01062