File: xy_files/Mg(Fe2O3)4.xy
# 2-theta (degrees)	Intensity
11.743	4.23404
16.6156	0.802086
20.1275	2.85557
20.852	4.65959
23.294	14.8342
24.0252	7.65209
26.4236	41.8685
26.9713	5.49217
29.3903	19.2371
30.6688	28.6562
31.9586	21.995
33.5939	100.0
34.7225	82.8609
35.2464	1.45177
35.4575	14.4162
36.019	1.61739
36.6202	0.458964
36.9827	17.6954
37.5479	15.5778
38.7792	6.19275
39.2969	3.38413
39.6209	21.5476
40.09	20.4507
40.1415	0.546685
41.3066	0.233759
41.4883	6.89472
42.1644	17.6259
44.2916	4.40605
44.6716	0.705443
45.6303	0.083812
45.8011	13.9099
45.8487	0.601808
46.9929	0.674269
47.6836	0.650998
48.2663	4.20813
48.6813	3.23913
48.7807	0.792322
49.1965	26.0948
50.0239	0.513526
50.3595	30.7161
50.6357	6.30893
51.0916	31.4947
51.3762	0.0136556
51.7423	40.9753
51.9091	0.652598
52.0098	34.5243
52.5465	0.173287
53.2423	0.469247
53.3631	1.98069
53.9273	0.0824056
54.4007	0.33327
54.5579	0.455343
54.75	1.31535
54.8255	2.93189
55.3945	1.92722
55.7192	4.53928
56.0606	1.25331
56.3984	0.601822
56.5192	0.949185
57.385	11.5508
57.9405	6.25412
58.1536	0.856784
58.4309	1.20383
59.1764	3.12434
59.7753	1.98601
60.1698	0.381208
60.248	3.53723
60.5884	4.78277
60.8118	32.1577
61.0171	0.358192
61.3265	0.366881
61.6982	2.55958
62.6826	2.46815
62.9473	0.733526
63.0448	0.83006
63.3037	0.290738
63.4077	0.670592
63.7	2.85904
63.7683	0.501316
64.1269	0.272564
64.7255	1.36834
64.7314	0.641163
64.9718	3.10605
65.4902	5.45916
65.5721	0.667396
65.762	0.431198
66.121	4.99613
66.4775	0.774837
66.6011	0.00469517
67.0663	0.166233
67.4008	7.81365
67.6331	1.34216
68.0916	6.99264
68.269	1.24976
68.3537	1.12205
68.6398	0.422849
68.8228	0.149534
68.9208	2.25329
69.2839	0.426366
69.321	1.6912
70.4156	0.00961388
70.7054	0.505215
70.9813	4.24974
71.2871	4.52504
71.7474	0.860437
72.0251	0.233807
72.27	0.868961
72.4662	2.22443
72.7649	0.00230894
72.9268	0.794352
73.2329	9.90826
73.3818	0.676776
74.1505	1.75121
74.2202	0.249303
74.3383	0.258218
74.5505	4.09355
74.6668	0.171881
74.8282	3.8607
74.9082	0.0806064
75.0766	0.666616
75.3523	3.26883
75.4717	0.102294
75.763	0.348928
75.9185	1.41257
76.1014	0.0179129
76.3915	0.0472906
76.4531	0.0452342
76.648	1.68682
76.7862	0.43935
77.0836	0.170559
77.2549	0.0754236
77.524	1.2061
77.6163	0.766615
77.7702	3.05539
77.8239	0.0757167
78.0365	0.0076459
78.1079	2.8778
78.3449	0.235357
78.6913	0.114692
78.7381	0.219919
78.7425	3.57698
79.1337	3.12332
79.5333	0.44499
80.1321	3.41699
80.3182	0.0649368
80.6235	0.00183982
80.6613	0.174882
81.4387	0.832421
81.6786	1.46815
82.0926	1.25075
82.2958	1.33681
82.5288	0.0711565
82.8092	1.17228
83.1602	1.28583
83.3309	0.615366
84.086	1.48156
84.3254	4.19262
84.4782	0.617674
84.759	1.40712
84.8904	0.46219
85.1657	1.02044
85.3469	6.83576
85.3995	0.153691
85.4167	0.244205
85.4858	0.17682
85.5845	0.0164097
85.5984	0.846615
85.6597	1.21044
86.1394	0.163033
86.3171	2.39371
86.5525	2.06849
86.6657	1.84915
86.7294	0.0656557
87.1834	0.304881
87.4767	2.2613
87.738	0.00253318
88.2518	0.825904
88.3943	0.202465
88.6446	0.256921
88.7906	0.111469
88.9598	0.567535
89.1417	0.199038
89.5208	0.386483
89.6229	0.165832
89.9364	0.66342
89.9847	0.596218