File: xy_files/Mg(FeO2)8.xy
# 2-theta (degrees)	Intensity
8.27106	0.0668551
11.7046	100.0
16.5856	48.7213
18.5163	0.4909
18.6823	1.55285
23.5337	6.70804
24.9892	0.125833
26.3038	5.0517
26.5323	25.9144
30.0853	1.79417
30.2768	0.151628
30.5259	0.186311
31.4631	0.407686
32.6115	0.00194509
33.8983	6.30992
34.7114	1.62223
34.8042	0.167567
35.0447	0.402382
35.7246	31.4285
35.8152	15.9195
36.0309	10.4318
37.7891	3.69799
38.1333	0.228444
38.8695	0.978757
39.8262	7.6784
40.6528	0.481185
40.8086	3.8171
42.2716	1.5319
42.6761	0.0974714
42.8072	0.683472
43.2074	0.908555
43.3001	0.0215528
43.5167	7.86934
43.7085	0.0151949
45.799	0.0408139
45.9629	0.452898
46.3299	0.390725
46.7148	23.4991
46.9761	17.3654
47.7552	0.318903
48.7069	0.325114
49.1659	0.118817
49.4452	1.26901
49.8889	0.968643
50.406	0.458853
51.8614	11.2096
52.1541	0.0955119
52.7151	0.346954
52.8744	1.06981
53.2162	0.594614
53.3272	0.0527754
53.7161	0.421268
54.0935	0.622245
54.5294	0.311747
54.9275	0.0020739
55.0671	0.00233301
55.71	7.93367
56.0298	20.4913
56.3509	10.1973
57.9336	2.0232
58.432	0.871984
59.2415	1.32256
59.7024	1.30448
60.6377	0.20236
61.2281	0.631353
61.3042	0.126761
61.3496	1.78612
61.5012	0.0828838
61.9216	1.18797
62.0558	0.259534
62.5405	0.0110917
62.9737	12.5529
63.2541	0.680609
63.5383	0.221424
63.6549	0.0256162
63.8264	0.0203427
64.1009	1.37434
64.2386	0.69281
64.3328	1.74735
64.724	7.50336
65.6753	2.83861
66.315	0.0699251
66.4486	1.92281
67.0018	0.0275042
67.0839	0.00400134
67.6043	0.467305
68.3228	0.667568
68.6257	0.276776
68.9741	0.0292297
69.3266	1.1256
69.4759	0.24521
69.5688	2.72247
69.8228	0.611485
69.9363	0.0335355
70.4695	0.0354917
70.597	0.827726
70.9237	0.355227
71.2259	0.0691281
71.33	1.0331
71.3668	0.745408
71.524	0.406726
71.659	0.809135
71.7216	0.324251
71.989	3.53311
72.0692	0.0404568
72.2604	2.43717
72.8118	0.00826899
73.2631	2.62083
73.6081	0.336401
73.9528	0.300436
74.049	0.0390265
74.4989	3.55383
74.746	2.8073
75.317	0.349448
75.6803	0.531878
75.8417	0.0107197
75.8988	0.508756
76.4202	2.42223
76.536	0.872026
76.6736	2.17953
76.8493	0.452805
77.4866	0.00462961
77.6313	0.200059
78.5853	0.01946
78.7924	0.423732
79.0223	1.25026
79.0978	1.8124
79.1613	0.225767
79.345	0.271576
79.4491	0.523292
79.6551	1.91041
79.7896	0.00237815
80.1116	0.15943
80.202	2.83711
80.939	0.0419516
81.1307	0.0992442
81.3985	0.0984608
81.4345	0.0225715
81.616	0.364451
81.6753	1.14894
82.0438	0.209464
82.7013	0.0323828
83.157	0.402105
83.3947	0.0218053
83.4362	0.179469
83.809	0.233769
84.3373	0.467596
84.4475	0.129463
84.5307	0.477129
84.6201	0.0178122
84.7724	0.0805002
85.3961	0.00171218
85.5282	0.236277
85.8732	4.3414
86.0944	1.55705
86.3909	0.0802602
86.5894	0.0134839
87.0109	0.968882
87.6945	1.56663
87.9754	0.0134883
88.1014	0.00956569
88.4519	0.00275615
88.7918	0.0790881
88.867	0.0308872
89.2815	0.325134
89.5197	0.0421667
89.8211	0.00433168