File: xy_files/Mg(FeO2)2.xy
# 2-theta (degrees)	Intensity
17.9851	53.106
17.987	17.7534
20.7979	23.8168
29.5776	51.4826
29.58	10.1317
34.8326	47.8467
34.8346	91.8131
34.8357	100.0
36.4334	3.88106
36.4374	13.6315
42.3235	75.6219
46.3285	1.61116
46.3309	4.65539
46.3334	2.42327
47.6068	4.9324
47.6101	2.32977
52.4766	1.82129
52.4812	17.3909
52.4827	1.80411
55.9282	6.11862
55.931	28.2999
55.9332	31.0647
55.9347	22.5469
61.3961	59.777
61.4015	60.6388
64.5388	0.451108
64.5415	1.6344
64.5448	7.51677
64.5455	0.81031
65.5668	0.44339
65.572	1.83407
65.5747	1.68675
69.6094	1.24561
69.6132	6.69024
72.5653	4.19276
72.5728	9.80218
72.5747	9.86376
73.5428	3.58601
73.5478	4.53612
73.5503	2.73938
77.3972	2.79152
77.4071	8.35771
80.2537	3.52785
80.2568	0.461825
80.2592	0.571168
80.261	0.852346
80.2628	0.815626
81.2011	1.04874
81.2084	1.45662
84.9596	3.81617
84.9657	0.951558
84.9693	4.40314
84.9705	0.965246
87.764	3.83413
87.7676	3.61889
87.7706	9.77204
87.773	6.68459
87.7748	4.38102
87.776	10.964