File: xy_files/Mg10FeO11.xy
# 2-theta (degrees)	Intensity
13.9937	0.00145015
14.4873	6.44695
16.4148	0.00146311
18.0162	4.03546
20.243	2.9439
22.0808	0.00185294
23.3609	2.20849
24.5378	1.87989
25.3822	1.8013
26.5724	1.61801
27.6502	1.42814
29.1455	1.3559
29.5191	0.00135
30.0874	1.25068
33.0131	1.04224
33.7033	0.00319902
34.0439	0.00243633
34.2708	0.00116201
34.4494	0.0011988
34.7462	0.792967
35.16	0.986106
35.6837	0.00241742
36.0481	0.75915
36.0893	0.00146223
36.4258	11.7181
36.452	11.6982
36.909	0.686074
37.2756	0.766393
37.5935	0.00239587
38.8899	0.731323
39.1134	0.58115
39.2696	0.546598
39.4342	0.0021948
40.2911	0.00155929
40.8559	0.575451
41.0567	0.00100167
41.1548	0.566241
41.5512	0.53783
42.2594	100.0
42.3364	99.4364
42.486	0.50571
42.9412	0.45136
43.2027	0.488864
43.5085	0.00103548
43.7408	0.373052
44.3867	0.527663
44.498	0.44175
45.4548	0.418695
46.4287	0.0013103
46.7315	0.447926
46.8766	0.438298
47.3228	0.00119499
47.7705	0.332156
48.2186	0.318746
48.5617	0.184863
50.0359	0.316856
50.4235	0.184421
50.5028	0.166633
50.7664	0.293038
51.2049	0.00106723
51.6575	0.143741
52.1298	0.154098
52.4136	0.264174
52.6624	0.158691
53.0003	0.26998
53.1362	0.0010165
53.8245	0.179173
54.5249	0.253415
54.7194	0.00139702
55.074	0.115959
55.5674	0.13906
55.9943	0.253111
56.0408	0.132343
56.8156	0.135355
57.1429	0.228729
57.2192	0.146281
57.2742	0.135638
57.4111	0.128687
57.7084	0.125604
58.0047	0.146854
58.3866	0.124168
58.7945	0.129903
59.2708	0.109091
59.5265	0.00102188
59.63	0.0015651
60.2793	0.117663
60.4262	0.128471
60.6229	0.103164
60.9046	0.0937324
61.1712	0.00107155
61.3509	28.0952
61.3956	28.0388
61.4346	27.9766
61.5211	0.153666
61.5785	0.108403
61.9986	0.107631
62.3516	0.114864
63.0543	0.100662
63.4322	0.170053
63.5507	0.0951838
63.7375	0.119562
64.0115	0.149325
64.2418	0.00113992
64.5507	0.1292
65.0355	0.0885571
65.3876	0.0994906
65.9797	0.101474
66.4022	0.0916767
66.4501	0.0770224
66.8807	0.109894
67.8162	0.00101207
67.9805	0.0994
69.2567	0.0835581
69.4184	0.102265
69.5921	0.0860611
69.6594	0.0889104
70.1028	0.091694
70.3412	0.0439344
70.4048	0.0846467
70.491	0.0788555
70.9543	0.0932137
71.1552	0.0926345
72.1912	0.0370077
72.2908	0.0635165
72.4955	0.0879971
72.5514	0.0690393
72.8278	0.0414687
73.3251	0.0995941
73.416	2.32422
73.4604	2.32017
73.5354	2.30998
73.5578	0.0799686
73.5773	2.30966
73.5912	2.30428
73.6112	2.30462
73.7365	0.0717107
74.3246	0.0768636
74.7976	0.0772245
75.0246	0.0420017
75.1093	0.0735911
75.2312	0.0785261
75.5796	0.0494317
75.6633	0.0804269
76.0057	0.0763514
76.203	0.0676477
76.6915	0.0635573
77.0121	0.076406
77.3427	12.6933
77.3981	12.6676
77.5547	0.0644377
77.7683	0.0341619
78.1662	0.0544584
78.1808	0.0587691
78.5588	0.0662196
79.1315	0.0693269
79.2114	0.043678
79.4598	0.0667896
79.7052	0.0335623
80.2514	0.064796
80.6863	0.0710273
80.8124	0.0465329
80.8506	0.0604553
81.0373	0.0637475
81.1491	0.0887589
81.5937	0.0364551
82.161	0.0447749
82.1932	0.0514239
82.2625	0.040287
82.4601	0.0712119
82.7006	0.0638988
83.3248	0.0658386
83.4879	0.0616254
83.6212	0.0428399
83.8294	0.0533028
84.3357	0.0584571
84.4505	0.0404308
84.8276	0.0416185
85.1526	0.0661777
85.8246	0.0569208
86.092	0.0565024
86.1469	0.0650737
86.1867	0.0622611
86.2693	0.0416389
86.3357	0.0536809
86.3872	0.0376886
86.6479	0.0820231
86.9714	0.0782581
87.1144	0.0680488
87.1583	0.0379672
87.296	0.0699691
87.8853	0.0595951
88.1644	0.03791
88.5428	0.0576238
88.865	0.0525734
89.056	0.0448004
89.1223	0.0484456
89.3276	0.0583694
89.8474	0.0280217
89.9223	0.0671347