File: xy_files/Mg14MnFeO16.xy
# 2-theta (degrees)	Intensity
10.3228	0.115275
14.6185	9.47883
20.7306	5.20207
20.7464	2.58192
23.2097	0.0303439
23.2238	0.0185604
25.4734	5.62711
29.482	2.14707
29.4934	4.26272
31.3149	0.00228279
31.3256	0.0118375
33.056	3.65376
36.3252	26.1063
37.8629	0.00297212
39.3493	4.05586
42.1816	100.0
42.2148	49.96
43.5449	0.00951657
43.553	0.0121938
43.5774	0.0080772
44.875	0.953794
44.9066	1.03699
47.4467	1.01237
47.4543	1.01137
47.477	1.02983
48.7007	0.00645666
48.723	0.00885674
49.9238	1.08532
52.3068	1.4657
52.328	0.746384
53.4628	0.0121738
54.6086	0.374041
54.636	1.48422
57.954	0.0104789
57.9606	0.00483444
59.0483	0.777751
61.1812	28.1931
61.2067	56.3941
62.2597	0.00613793
63.2776	0.329388
63.3026	0.580959
65.336	0.180087
65.3422	0.337021
65.3606	0.682229
65.3913	0.0862703
66.3524	0.00114512
66.4073	0.00102948
67.3671	0.584454
67.4154	0.291334
69.3566	0.296472
69.3625	0.292138
69.4103	0.284287
70.3444	0.00994196
70.3682	0.00951323
70.3978	0.00113431
71.3498	0.315063
73.2792	9.91011
73.3258	4.92104
74.2451	0.00181997
74.2625	0.00892255
75.2527	0.468086
77.134	25.5014
78.0607	0.00152574
78.0664	0.00214339
78.1121	0.00252403
79.007	0.321273
79.0298	0.329954
80.8908	0.183472
80.9134	0.186321
80.9417	0.177224
81.8514	0.0012366
81.8796	0.00121189
82.7704	0.523432
82.8154	0.200278
84.6365	0.325591
84.6533	0.33372
84.6814	0.317769
85.5673	0.00417879
85.5841	0.0108776
86.4914	0.276953
89.2757	0.00222614
89.326	0.00137459