File: xy_files/Mg2Fe3O8.xy
# 2-theta (degrees)	Intensity
17.8449	23.2846
18.4025	100.0
19.2616	5.88603
21.4342	24.5327
23.8101	2.04258
28.7251	34.6622
30.8294	0.0282251
31.2479	9.66721
31.7266	25.8671
31.8302	11.0678
35.3751	2.81325
36.1419	14.8314
36.6095	12.469
36.7879	8.89277
37.3022	6.03591
37.8579	57.2893
39.0961	26.6106
40.01	0.0134006
42.3057	5.11475
42.5484	1.47267
43.668	0.755756
44.4691	2.36176
46.3679	8.19539
46.8453	0.0729003
47.6176	52.2641
47.9882	1.70092
48.4277	0.0232438
48.7341	0.00943363
49.145	0.139416
49.5304	24.6758
49.8295	0.0288642
50.5959	1.75038
50.7813	0.0569492
52.3439	0.901754
53.2986	0.00914317
53.5352	1.46616
54.4052	7.08593
55.3919	5.08985
55.4581	5.10245
56.0187	0.0286599
57.0729	14.5385
57.3325	1.4922
58.5159	28.4856
58.7099	0.571925
58.8952	0.521107
59.2133	0.0140433
59.4865	0.995552
59.6673	1.32773
60.2511	3.19301
60.3828	1.30756
61.0972	0.459294
62.809	4.11269
62.8487	10.139
62.9929	0.0440302
64.2283	13.0316
64.7914	2.34649
65.1828	3.54943
65.3156	24.1791
65.4745	2.77697
65.9572	2.7546
66.2799	0.288674
66.3365	0.00277387
66.5181	2.14553
66.9733	1.50633
67.4401	4.13618
67.6662	0.695658
67.7401	0.30643
67.786	5.05509
67.8184	0.00197315
68.2891	1.18925
68.5539	1.25132
68.7488	0.583501
69.2129	3.18059
70.2303	2.00211
70.6582	0.0293239
70.8335	0.684924
73.1589	1.50889
73.834	0.513573
73.8809	0.646209
74.84	3.31012
75.5127	0.400862
76.3353	2.32516
76.3703	2.68692
76.4674	0.119271
76.5291	0.0665522
76.6213	1.32123
76.689	2.18531
76.7479	0.0286841
76.7841	6.0824
77.1492	0.536757
77.7841	0.579386
77.8263	4.98726
78.1686	0.840285
78.2622	2.56329
79.0531	2.15347
79.5254	4.24297
79.5317	0.00250715
79.9199	0.175055
80.9011	0.416176
81.4064	0.610718
81.7606	0.370167
82.1643	0.242748
82.3315	0.743662
82.3864	0.478938
82.406	0.886681
82.5908	1.50237
83.0956	0.958907
83.7681	0.286648
84.01	0.44612
84.0264	0.174049
84.2862	3.06361
84.4108	0.364773
84.9439	0.129864
85.1912	7.26632
86.1543	0.230669
86.3346	0.282449
86.3461	0.363006
86.4379	1.08988
86.8108	1.45138
87.317	0.486421
87.4809	0.153643
87.6791	0.326269
88.1415	0.00992836
88.3316	2.30263
89.8426	1.22748
89.8972	0.126194