File: xy_files/Mg2FeO4.xy
# 2-theta (degrees)	Intensity
18.0757	7.22659
29.7276	61.8171
35.0111	100.0
36.6219	1.33688
42.5416	9.80203
46.5727	3.50359
52.7582	22.1674
56.2323	33.9018
61.7335	52.8492
64.8987	1.16061
70.0033	8.67283
72.9855	10.1186
73.9687	0.00953814
77.8566	1.16866
80.7347	0.674215
85.4832	9.9066
88.3153	17.0775