File: xy_files/Mg2Mn3O8.xy
# 2-theta (degrees)	Intensity
18.1041	16.4803
18.1769	0.294845
18.9271	100
20.515	13.3413
23.9206	1.60718
25.7641	4.5218
26.359	9.32991
30.6789	45.726
31.1249	0.00144005
32.6101	14.5444
34.0607	10.7317
36.2795	6.85504
36.681	13.4529
36.8326	7.52031
37.5687	40.3882
37.5845	3.73673
38.1057	16.2182
38.3969	3.11718
40.1462	0.287969
41.2298	23.1861
41.333	0.406992
41.7272	11.586
42.792	0.460264
44.738	6.88445
45.7464	1.98249
46.8048	31.2845
47.2549	12.9665
48.5032	1.24206
48.9716	0.0871271
49.9904	0.671162
50.003	4.85868
50.2254	0.8814
51.2302	0.125132
51.2382	0.487037
52.2168	0.209665
52.2533	0.20712
52.9605	3.29059
53.8524	10.6804
54.2593	10.3587
54.8176	0.069016
55.1015	4.09048
56.3277	6.46858
56.5726	0.0285189
56.7613	0.896472
57.4957	0.115641
57.671	5.28243
59.0099	0.00638089
59.1104	2.21461
59.6992	1.13848
59.9091	1.20017
60.2107	2.91014
61.5438	0.0874394
62.0816	32.5597
62.3879	0.0468729
62.4211	1.1972
62.4538	11.7825
62.5599	0.678774
63.8859	0.324805
64.5816	0.331221
64.6914	1.14582
64.7559	0.351606
64.9019	12.1304
65.0127	3.99983
65.8002	0.205063
65.9884	21.7213
66.8335	1.6144
66.844	4.3465
68.021	0.025976
68.2782	4.02913
68.3196	0.560775
68.8537	0.59218
69.2168	1.92365
69.3381	7.48357
70.2347	0.744185
70.4514	0.221645
71.3251	0.802589
71.3657	3.46655
71.4274	0.483071
71.713	2.84768
72.4418	1.22031
72.6254	0.0684107
73.2458	0.129812
73.276	1.43678
73.4251	0.138828
73.8718	0.399198
74.9173	0.625403
75.3678	1.74751
75.4176	0.603075
77.023	1.84735
77.6749	0.377214
77.7045	0.0285764
77.8165	3.56092
78.0009	1.30664
78.3716	0.0916575
79.0093	2.50007
79.1612	2.66122
79.8071	0.333279
80.0432	0.276051
80.1836	2.01637
80.2227	0.107023
80.4694	0.00961971
80.9095	0.0573164
81.2539	0.0775144
81.5182	0.688914
81.732	3.6381
81.9765	0.183746
82.0355	0.114918
82.0647	1.5257
82.2467	2.75818
83.5979	1.91655
83.9543	0.750064
84.0934	3.43967
84.1419	0.688504
85.0235	0.0997403
85.1236	0.14772
85.4166	2.28577
86.0437	0.217117
86.3153	0.280125
86.6976	0.0312916
87.1132	0.200908
87.1904	1.44981
87.4731	0.66137
87.4827	0.0920502
87.8885	0.387671
87.9174	0.0862215
88.3797	0.112309
89.2116	1.00205
89.3868	0.0197761
89.5252	3.69273
89.7973	0.291905