File: xy_files/Mg2Mn2O5.xy
# 2-theta (degrees)	Intensity
12.4141	3.74759
18.1374	0.959573
23.9396	33.9949
24.977	11.8368
25.3711	0.580305
27.0522	12.2637
33.7714	31.1531
34.4488	25.7708
34.8701	100.0
35.9013	12.0752
36.1106	4.72705
36.7502	2.02727
37.8543	0.830686
38.595	1.05969
39.0494	3.95477
42.4608	2.18885
42.7085	7.57866
43.0205	4.58308
43.1269	0.914623
45.2877	3.77326
47.9527	0.848738
49.0125	32.0174
50.1119	0.270773
50.4822	0.664592
50.7642	6.91648
51.2511	15.693
51.6228	1.8551
52.1058	0.0288619
53.1603	0.115882
54.7954	1.08171
55.72	0.844386
55.78	5.83283
56.4189	10.1707
56.4396	3.05587
57.3244	4.86024
57.3261	1.27741
59.9334	0.850864
60.262	0.429917
61.1201	20.0866
61.1382	0.091576
61.9842	30.0096
62.6585	0.2055
62.7953	15.672
63.2216	14.6841
63.5467	2.11087
63.9518	1.49632
64.4791	0.616382
65.4503	0.173685
66.8983	0.0471353
67.4135	0.138709
68.5265	4.69695
69.3406	0.347325
70.7642	0.767464
71.0315	1.65831
71.397	0.53873
71.7019	0.18483
72.0017	0.386416
72.4422	2.69202
72.6119	0.00230667
72.6307	3.02066
73.1088	1.79462
73.6322	9.90955
74.0165	0.143695
74.0291	0.405507
75.4929	0.285105
75.5881	0.197757
75.7151	0.730067
76.1067	0.270468
76.6131	0.578893
76.7854	0.217007
76.9523	0.409548
78.1701	1.32757
78.2443	0.265146
78.3223	0.658727
78.3237	1.87788
79.097	0.736015
80.8768	0.823221
80.8921	0.0593776
81.3574	0.122649
81.3916	2.035
82.237	0.328207
82.401	6.20708
82.4169	0.0101525
82.5425	2.80154
82.7442	1.96026
83.4182	1.26731
83.6723	0.0498286
83.8916	0.892208
84.9455	0.0044036
85.4026	0.140408
85.6884	0.0758606
85.8557	6.54667
85.9069	0.493307
86.7807	0.235217
87.9215	0.694495
89.1213	1.44719