File: xy_files/Mg2Mn3O7.xy
# 2-theta (degrees)	Intensity
12.931	13.6911
15.6339	7.57619
17.1348	2.22156
20.5808	18.7532
23.1216	0.0405204
23.8767	71.6491
26.0305	0.198314
26.8302	45.6692
28.6602	6.40042
30.126	5.20006
30.3324	3.01198
31.5686	7.49828
32.1503	1.33888
33.6464	100.0
34.1613	0.568971
34.6686	8.80651
35.6691	0.396381
35.7093	0.00274466
36.5574	4.8993
36.9624	3.58875
37.3961	1.44318
37.7477	1.26066
38.9526	2.17698
39.9561	0.654624
40.3513	0.117472
40.9298	1.43063
41.0568	9.14364
41.8658	1.54163
42.6016	4.84176
42.9795	46.7039
43.7155	0.857871
45.165	0.0285641
45.5441	7.58374
46.132	0.130757
46.3872	2.23161
46.9832	2.55892
47.0896	0.544926
47.3235	1.40687
47.6427	0.120588
47.7752	44.0304
48.0748	16.7218
48.3072	0.104933
48.5787	1.01026
48.7756	0.0752611
48.8772	3.94281
49.0973	0.46094
49.2114	1.70626
49.7151	0.0109975
50.2818	0.149177
50.7461	1.00247
51.0982	0.868086
51.8803	1.25918
52.3334	0.376696
52.9846	5.46235
53.0924	1.43584
53.8416	1.56265
53.9335	0.0319502
54.0017	3.45301
54.9908	2.09877
55.3251	0.335181
55.8647	0.105958
56.2258	0.00209715
56.3812	0.290473
56.4859	0.0510464
56.7134	0.23925
57.7996	0.0160571
58.2337	0.032856
58.9128	1.83657
58.9568	0.323601
59.3822	0.0489725
59.5664	0.00152678
59.628	0.131521
59.9085	0.614822
60.1373	0.553428
60.7631	0.802524
60.8645	7.23484
61.0589	0.447976
61.3832	0.521529
61.7934	0.214735
61.8698	0.0207525
62.4527	0.00153836
62.4958	0.860047
62.5909	2.1251
62.6644	17.3241
62.8642	15.9698
63.0085	0.0439814
63.17	0.0152807
63.232	0.0278738
63.368	0.312528
63.4951	0.0921783
63.8168	0.0680555
64.2279	0.0407622
64.4815	1.05393
64.6745	1.34091
64.8115	0.00764679
65.2318	0.347932
65.8417	0.357098
66.06	0.251442
66.2288	0.372649
66.4415	6.55116
66.5642	0.348397
67.0445	0.249391
67.1646	0.224124
67.2557	0.0899158
68.219	0.0153061
68.3846	0.122886
68.5866	0.367298
68.7725	0.281481
69.6581	12.2136
69.9166	1.46901
70.0443	0.0312292
70.1463	0.0859286
70.5682	2.09344
71.0523	0.602995
71.8281	0.00778418
71.9505	0.00121988
72.1311	0.484268
72.3867	0.130934
72.5059	0.129321
72.5514	0.199859
72.8745	0.00628277
73.1526	0.0057789
73.3393	2.59692
73.5703	0.227455
73.6918	0.0313796
73.7566	0.00823221
73.8931	5.22803
74.0896	0.0266173
74.3694	0.477798
74.4587	0.0210461
74.5507	0.018427
74.6639	0.306256
74.7955	0.252944
74.9083	1.15683
75.0838	0.0702401
75.5465	0.423128
75.6047	0.0386466
75.671	0.233351
75.9991	0.554045
76.1632	0.00306746
76.2406	0.0119591
76.7166	1.35292
76.8133	0.01711
77.5009	0.00842937
77.5413	1.10149
77.6994	0.107478
77.9553	0.00180171
78.6672	0.0658656
78.7276	0.131275
78.9295	0.146618
79.1329	0.151559
79.378	0.00214353
79.3938	0.156336
79.6965	0.116528
79.7911	0.07202
79.9967	0.474687
80.1648	0.174829
80.3183	0.400578
80.5746	1.30547
80.803	0.243026
81.1003	0.24873
81.4163	0.0134794
81.5341	0.262553
81.7169	0.027857
81.8568	0.275707
81.9627	0.605509
82.0046	0.0397336
82.2977	0.620174
83.0038	0.0921681
83.1253	0.356669
83.3154	0.042562
83.4457	0.0230803
83.6463	0.219541
84.0892	2.02393
84.1846	0.00401853
84.3194	0.00764849
84.7542	6.36647
85.0177	1.71051
85.5526	0.0993429
85.6937	0.0212949
86.0138	0.0253074
86.4781	0.0296474
86.5693	0.021929
86.7992	0.120989
86.9245	0.0363877
86.9826	0.00528305
87.2285	0.044739
87.3846	0.0354778
87.5104	0.0363734
87.5972	0.0270038
87.8042	0.0181877
88.0612	0.122524
88.1633	1.37792
88.2308	0.11877
88.3533	0.778535
88.5787	0.343968
88.8153	0.0480614
88.8408	0.513571
88.8763	0.0594037
89.0697	1.52188
89.1278	0.0376071
89.2301	0.110618
89.3414	0.0216238
89.5722	0.0202085
89.7392	2.39607
89.8846	0.0139831