File: xy_files/Mg30MnFeO32.xy
# 2-theta (degrees)	Intensity
10.3492	0.020279
10.3755	3.05002
14.656	2.42531
14.6747	0.0401544
17.9899	3.26773
20.784	1.42477
20.8374	0.706526
23.2697	0.00198935
23.2817	2.00173
23.3176	0.00863045
25.5374	0.0065285
25.5703	1.57287
29.5589	0.587246
29.5973	1.16851
31.4059	0.949778
31.4331	0.00390252
31.4785	0.302221
33.1427	1.05124
33.1514	0.00176014
34.819	1.65222
34.8853	0.682905
36.4435	20.5974
37.954	0.0046507
38.0233	0.696112
39.4524	0.0129532
39.4747	1.08535
42.2943	100.0
42.4068	49.5913
43.6617	0.00155167
43.6685	0.337146
43.6891	0.00184864
43.7234	0.418829
43.7714	0.00188438
44.9956	0.297501
45.0024	0.00509127
45.0559	0.00107846
45.1028	0.26084
46.3058	0.435026
46.3582	0.742483
47.5751	0.276304
47.6008	0.275504
47.6778	0.275767
48.8318	0.475101
48.8507	0.00269768
50.0772	0.278127
50.1081	0.00189105
52.4671	0.400681
52.5388	0.199957
53.61	0.00144721
53.663	0.222568
53.757	0.0320958
54.7595	0.0806694
54.7653	0.00373469
54.8523	0.419983
54.9044	0.00604064
55.8987	0.206772
55.9444	0.243775
56.0359	0.124834
58.1382	0.00366013
58.1661	0.334692
58.2051	0.00313128
58.2553	0.101524
59.2293	0.23161
59.345	0.00237056
61.354	28.1447
61.4404	56.031
62.4162	0.100021
62.4964	0.00122467
62.5445	0.0930726
63.4577	0.0841164
63.5424	0.179242
63.59	0.00208915
64.5003	0.171087
64.5422	0.143508
64.6262	0.200549
65.5234	0.0494723
65.5443	0.0913988
65.6067	0.183107
65.7107	0.0240972
66.5487	0.0880633
67.5763	0.163733
67.6839	0.00428274
67.7402	0.0831837
69.5588	0.0809061
69.5791	0.0805813
69.7408	0.0793956
70.5505	0.0011244
70.5555	0.14871
70.5957	0.0856308
70.6308	0.00128955
70.676	0.051121
71.5411	0.00254901
71.616	0.0672517
71.6609	0.00467575
72.5607	0.127826
72.6402	0.0853693
73.5105	8.55456
73.6686	4.25328
74.4803	0.00328579
74.5048	0.0762099
74.5835	0.0909825
75.4308	0.00157474
75.6021	0.126458
77.4218	25.3339
78.3413	0.12201
78.5348	0.0197058
79.2481	0.0944217
79.3252	0.0834202
79.3686	0.00447173
80.2002	0.160929
80.3156	0.0620085
80.431	0.0513651
81.1401	0.0504544
81.2168	0.0505459
81.3127	0.0494232
82.0823	0.00128601
82.0871	0.0924288
82.3167	0.0669946
83.0272	0.00299973
83.0415	0.14084
83.1942	0.0515939
84.9162	0.0898941
84.9733	0.0900661
85.0684	0.0889161
85.9084	0.00135731
85.9511	0.0296924
86.0651	0.0517848
86.7665	0.092003
87.7044	0.130003
87.7424	0.138864
87.8182	0.0655201
87.932	0.101709
89.6072	0.0930021
89.683	0.030732