File: xy_files/Mg3Fe2O7.xy
# 2-theta (degrees)	Intensity
10.08	9.86158
18.0552	0.143426
20.2391	36.3901
24.4336	51.7295
28.4095	18.4009
30.5622	1.53596
30.8912	0.161054
32.9935	36.3195
34.5838	0.240009
35.0681	24.8049
35.1322	100.0
36.5792	0.048351
37.862	2.06667
38.9083	5.14522
39.0142	1.38659
40.0459	12.6943
40.2957	7.52608
40.6573	6.25498
40.8236	2.10928
41.1467	1.11896
43.5135	8.18348
44.2412	0.735048
45.5882	1.2569
45.8231	5.14161
47.1917	0.247378
48.9132	33.2137
50.0557	0.110103
50.0763	7.73966
50.2655	0.139
52.113	16.8607
52.8243	0.19958
53.0064	17.9219
53.4546	15.1341
53.718	4.60776
53.9914	14.8544
54.0062	0.0353869
55.1453	0.418968
56.149	13.873
56.1634	0.888109
56.8125	3.3327
57.9148	0.327105
58.783	3.5101
58.9016	2.70152
60.311	14.4639
60.3248	0.383767
60.8115	0.524846
61.2639	0.368319
62.8953	0.312028
62.9501	38.4473
63.0741	14.7623
63.425	0.459784
63.6207	0.00118886
63.8845	0.237709
64.3689	13.4175
64.7588	0.511763
65.7807	2.92085
66.2543	3.98039
66.6992	0.0292171
66.8042	0.426015
66.9049	0.0481216
68.7676	0.350253
69.2108	1.29932
70.1539	0.758292
70.4995	0.249624
70.9485	0.611133
71.5368	0.455258
72.2004	1.35134
72.3948	0.0120431
72.9511	2.87388
73.558	0.100615
73.788	6.24635
73.8006	0.0561932
74.0488	0.120434
74.1049	3.06528
74.2579	10.0295
74.7648	0.00125919
74.803	1.77697
75.0224	0.129051
75.8981	0.131227
76.0426	0.506484
76.1922	2.14487
76.4932	0.417314
77.0062	0.860154
77.1462	0.997146
77.4011	0.154329
77.5253	1.78491
77.6974	0.0571448
77.7525	2.09448
77.957	0.71343
78.8152	1.11841
80.0144	1.75725
80.1065	0.250856
80.9112	1.55477
81.8834	0.273453
82.2439	0.279964
82.4015	4.66074
82.8289	1.27663
82.841	0.0527799
83.2398	0.112896
83.5342	2.67261
83.5891	3.81983
83.8024	1.09934
84.1736	1.07511
84.4235	1.86457
84.5695	0.249151
85.0461	0.00111534
85.1638	0.129789
85.2746	1.96786
86.0019	0.394094
86.4387	2.71852
87.0843	2.64477
87.3613	6.328
87.7295	0.556235
88.0241	3.35417
88.4583	0.26625
88.7509	0.231385
89.3061	0.0813026