File: xy_files/Mg3Fe3O8.xy
# 2-theta (degrees)	Intensity
18.0498	17.1832
18.1303	2.47764
20.9413	3.64806
29.7347	18.5023
29.8354	61.6942
35.0033	38.9716
35.0904	100.0
35.1339	16.1248
36.5679	0.657849
36.7355	0.0228583
42.6261	19.905
46.537	1.18707
46.6403	1.46825
46.7434	0.0802081
47.8859	5.2884
48.0206	0.636862
52.7088	9.66271
52.8972	6.82814
52.9599	10.749
56.1452	0.568599
56.2656	6.08351
56.3557	23.0306
56.4158	23.6291
61.7497	36.5096
61.9766	37.5101
64.8779	1.46658
64.9884	0.157328
65.1263	2.54719
65.1538	0.0909298
65.8569	0.0499356
66.076	1.90863
66.1854	0.17042
70.0755	7.87442
70.235	2.45147
72.8911	5.8255
73.2048	7.58933
73.2832	1.67366
73.95	0.0112676
74.1581	1.58093
74.2621	0.144997
77.7249	0.795454
78.1341	1.90174
80.6975	1.04998
80.8242	0.791778
80.9255	0.310596
81.0015	0.242211
81.0774	0.229994
81.7245	0.0369768
82.0277	0.136467
85.4078	1.13751
85.6587	4.44252
85.8091	1.4623
85.8593	4.95249
88.182	1.86495
88.3322	5.67226
88.4573	0.831906
88.5573	1.51484
88.6324	3.52574
88.6824	11.9813