File: xy_files/Mg3Fe4O7.xy
# 2-theta (degrees)	Intensity
8.2467	5.75555
16.5365	2.07663
20.8576	18.2852
23.9659	1.49529
24.9146	7.74887
29.2582	0.306304
29.5041	8.2195
31.8275	0.889252
33.4305	2.26533
35.8665	34.0216
35.9081	34.0746
36.0719	0.164751
36.9063	0.725905
39.7719	1.3653
41.5642	51.165
41.7346	100.0
42.1414	0.190534
42.4495	0.221617
43.3093	0.345921
44.2012	8.42004
45.0206	0.301897
48.4316	0.256189
49.069	2.25406
49.8708	1.38771
51.1159	0.00143361
51.3723	0.347113
51.7908	2.98838
53.2837	0.357097
54.3546	0.945326
55.9366	0.134438
56.1865	0.0811554
56.5334	0.203457
59.9885	2.33258
60.3665	57.6563
60.4408	14.1074
60.5526	14.2277
60.6788	0.109668
61.2308	0.0896379
63.2395	0.0961095
64.0424	0.026754
64.1494	1.15332
64.4756	0.66728
64.7802	1.29849
65.6866	0.183358
65.7817	0.0728792
66.0831	0.279417
66.5118	0.832287
67.9163	0.00118108
68.3551	0.0207585
68.6509	0.0785198
69.1815	0.0590363
70.2317	0.0461008
70.963	0.379154
72.0418	0.11976
72.1329	4.80488
72.1584	4.82044
72.3452	9.45976
72.4218	9.5524
72.7798	0.0800604
73.0665	0.229466
74.6316	0.165784
76.0228	12.9624
76.1231	13.1029
76.5195	0.0495098
76.7326	0.0867239
77.0508	0.0521651
77.333	0.125441
77.6829	1.29564
78.5522	0.0985724
79.0494	0.0133969
79.3832	1.20927
80.652	0.0191353
81.4787	0.137156
81.56	0.905304
81.8977	0.292815
82.7722	0.0353159
83.0684	0.0710719
83.1442	0.00742093
83.3456	0.203966
85.0417	0.0537363
85.7338	0.442476
87.2558	0.0535943
87.7377	0.277179