File: xy_files/Mg3Mn4O7.xy
# 2-theta (degrees)	Intensity
8.07776	2.7031
16.196	1.46406
20.5353	16.6375
23.5642	1.39277
24.3971	4.75834
28.7263	0.483783
28.906	7.53617
31.1772	0.891159
32.7274	3.16807
35.1751	31.4149
35.2312	31.0273
35.3252	0.501142
36.205	0.471176
39.0002	0.942532
40.8563	100.0
40.9093	50.0508
41.2398	0.254766
41.77	0.104968
42.4368	0.150609
43.3198	5.68403
44.2699	0.208951
47.392	0.00324373
48.2062	1.35745
48.8462	2.15144
49.9977	0.147852
50.2973	0.278056
50.8642	2.68911
52.3152	0.352155
53.3447	1.31782
54.7067	0.0616366
55.136	0.235706
55.3343	0.192411
58.6849	1.28421
59.0803	14.2418
59.1962	57.3853
59.2312	14.3851
59.489	0.145912
59.8905	0.031604
61.843	0.0684015
62.6356	0.12308
62.6967	0.478232
63.3825	1.18588
63.3878	0.592776
64.3593	0.00288314
64.6473	0.133629
64.6525	0.0667967
65.0214	0.497767
66.5115	0.109804
67.1387	0.0725823
67.1438	0.0362823
67.6143	0.274266
68.5918	0.00332708
69.3396	0.527631
70.5181	0.0554831
70.6908	9.09382
70.7936	8.91473
70.7986	4.45647
70.8329	4.42645
71.3493	0.531772
71.4336	0.048197
73.2236	0.112269
74.3606	12.9512
74.495	13.1088
74.7202	0.067344
75.0841	0.030406
75.5463	0.0365432
75.5511	0.0182678
76.1708	0.843948
76.8421	0.0688726
77.168	0.033534
77.6168	0.500304
78.677	0.00565399
79.523	0.0313966
79.7451	0.534926
80.2368	0.438273
80.7322	0.0630452
81.1184	0.0584042
81.351	0.107331
81.3558	0.0536567
83.0642	0.00292608
83.7668	0.60196
85.3953	0.0522401
85.6675	0.626459
87.5068	0.0346334
88.2052	0.717806
88.2099	0.358861
88.5439	7.82822
88.6828	3.96802
88.8953	0.0846162
89.2453	0.112198
89.2513	0.0099566
89.5515	0.0789838