File: xy_files/Mg6MnFeO8.xy
# 2-theta (degrees)	Intensity
10.2291	34.5644
20.541	8.96701
20.6758	0.0325113
23.1179	0.0745941
29.3064	0.028557
29.4032	7.1747
31.0243	4.80042
31.208	12.0179
36.1371	37.4935
37.5763	0.00406289
41.7819	50.7512
42.0661	100
43.2697	4.74965
43.408	3.89725
47.0563	0.0113078
47.2505	3.52715
47.3151	0.00918402
48.542	0.0225928
51.9119	2.51385
52.0926	0.0132576
52.9411	0.224047
53.1787	3.56569
57.4369	0.0144729
57.6619	0.00357245
60.7869	56.983
61.0042	28.3199
61.7173	1.43785
62.0403	1.17921
64.6723	0.327567
64.9346	0.00829007
65.0917	1.18662
65.144	0.00173938
66.1437	0.00422208
68.6916	0.00194457
69.0986	0.00277179
69.1494	0.961775
69.8177	0.365092
70.0199	1.38635
70.1208	1.8534
72.6036	6.34763
73.0011	12.4234
73.7039	0.0121486
76.6775	25.7728
77.2225	0.390743
77.7088	1.30252
80.2024	0.669322
80.4432	0.00215812
80.6357	0.00184412
81.5575	0.0044701
83.929	0.00228004
84.1676	1.08053
84.3107	0.00316776
84.7011	0.491623
84.987	0.219371
88.6836	0.00356835
88.8735	0.00127252