File: xy_files/MgFeO3.xy
# 2-theta (degrees)	Intensity
13.727	60.0158
18.2502	100.0
20.6013	3.87998
21.5489	4.68803
21.5558	11.876
26.5305	6.22813
27.6561	17.3207
29.4443	52.6992
32.3881	39.3173
32.3976	64.8068
32.4841	1.36703
33.4279	52.4127
33.948	14.0305
33.9615	6.96137
36.2871	0.327251
36.2957	5.49874
36.6585	77.0025
36.6628	3.3138
36.985	2.21531
38.3379	0.00900335
38.3542	40.2279
39.5894	0.0610672
41.909	1.83249
42.0178	0.00569371
42.7059	1.53119
43.911	2.61887
43.9256	4.09518
45.1264	12.6666
45.1477	14.4441
45.3437	0.413014
45.4406	49.0031
45.4512	5.29307
46.06	5.72193
46.086	8.44504
46.1	1.74256
47.2996	1.85838
47.3065	0.527509
47.9617	0.208872
49.2625	4.04002
49.2692	0.834051
50.6876	7.09167
50.7137	23.1621
51.0692	0.00368805
51.0854	0.17027
53.1797	0.0320746
53.1891	3.35348
54.0027	3.44977
54.6348	1.21605
54.7146	0.0032097
54.7332	0.0183393
55.2776	1.63436
55.3022	1.59121
55.6771	0.484833
56.8191	6.18858
56.8786	1.05515
56.8816	0.470145
57.1119	0.52889
57.1985	1.44767
58.0909	2.38752
58.1028	1.75493
59.0903	4.78684
59.108	14.2
59.7067	0.00460951
59.7359	0.412086
59.8853	1.53486
59.897	0.0129334
59.9679	25.8317
59.9825	42.7489
60.077	1.72888
60.1032	2.52706
60.8469	17.0957
61.0965	0.146869
61.8741	37.9612
61.8826	12.3151
63.5219	0.664481
63.5304	0.210383
63.7612	1.64552
63.7781	1.70961
64.8832	14.4309
65.0156	2.54512
65.0212	3.41598
67.4735	2.10236
67.5345	15.187
67.5672	1.46227
67.8053	0.590969
67.8271	0.0438173
67.8811	0.42338
67.9083	0.329353
68.0274	3.68991
68.1603	0.199205
68.2264	1.75557
68.2509	0.570976
68.419	1.36779
68.7208	4.72196
68.7533	0.389102
70.2255	2.01498
70.5633	0.0246819
70.9365	0.921925
70.9552	2.04965
71.2248	9.79215
71.2257	0.582914
71.2408	5.65957
71.2417	1.72588
71.4471	0.257972
71.4791	0.544692
71.9502	0.0608251
71.9608	1.0348
72.6768	0.0206553
72.7164	0.16825
73.0528	0.0641917
73.2502	3.63115
73.2713	0.201996
73.3851	0.704815
74.0755	0.288586
74.9866	6.57354
75.5066	0.026069
75.5223	0.506247
75.8364	0.386131
75.8494	0.445612
76.1182	0.0238823
77.0415	0.854683
77.0622	0.282349
77.0995	0.872887
77.5482	0.391015
77.556	0.520882
77.9118	2.83279
77.9428	0.496485
77.9461	0.145662
77.9564	5.49721
78.2256	0.177873
78.3049	1.54298
78.3409	1.55147
78.538	0.271502
78.556	4.24339
78.7453	2.55906
79.5142	0.110078
79.5168	0.218475
79.5245	0.705104
79.527	0.0568043
80.1501	0.169422
80.1808	0.127837
80.2201	2.01699
80.2584	4.97126
80.6349	0.128742
80.6375	0.0811978
82.0989	3.79226
82.1396	6.23487
82.4597	0.602211
82.7422	0.191397
82.7727	0.243213
83.0654	0.139116
83.0908	0.759657
83.3879	0.0650255
83.4108	0.224639
83.5961	0.10847
83.6418	0.593227
84.0619	0.00738456
84.8339	3.54731
84.8541	4.88508
85.2663	0.00749351
85.3241	0.0205066
85.3544	0.0959367
85.7099	0.00555504
85.7453	0.00495648
85.7841	0.411191
85.8245	0.010863
86.4359	0.285756
86.4435	0.37163
86.6742	2.152
86.6944	5.97134
87.0038	0.52844
87.7831	0.213746
87.7882	0.014467
88.1433	0.365432
88.1635	0.53772
88.2749	0.983413
88.3153	0.187749
89.5195	0.135572
89.57	0.113207
89.8797	0.100939
89.8948	0.0832798