File: xy_files/MgFe2O3.xy
# 2-theta (degrees)	Intensity
13.7439	39.9592
27.6906	1.54278
30.8098	10.9158
36.7161	76.2721
42.0716	50.6288
42.9405	100.0
45.2972	7.47563
46.6008	14.8916
51.8639	0.864731
57.1883	1.81062
58.9836	0.111265
61.6817	55.5655
62.3465	28.2344
64.1835	2.35528
69.5376	0.299703
71.1558	1.55007
73.368	9.17135
73.4897	0.0300114
74.101	3.16633
74.5896	20.2711
78.0867	25.2287
81.3035	4.78818
89.0689	0.0712558
89.656	1.94885