File: xy_files/MgFe4O9.xy
# 2-theta (degrees)	Intensity
15.2047	0.314234
16.859	76.4781
20.0291	6.6901
21.5667	4.31961
22.7773	16.6381
27.4999	7.8942
29.5984	100.0
30.6856	13.3973
34.0974	4.4123
34.414	44.5493
35.2142	1.68083
35.8471	3.70041
36.9177	0.643143
37.5257	0.0634728
38.5562	5.3431
40.7052	0.283629
42.2197	39.1836
43.1564	4.99476
43.9488	1.10694
46.5228	1.20504
46.7679	0.0288959
47.3917	0.185841
47.8894	5.76861
48.7398	5.4908
49.2272	4.87405
49.4621	24.1083
52.1793	2.26319
52.6291	26.5715
53.0904	7.30883
53.4382	1.71427
54.6769	0.48694
56.7669	0.00250098
56.9797	0.353541
57.0995	1.98602
57.9578	7.73425
58.286	10.5761
58.704	18.6742
59.1334	0.396297
59.8704	3.73649
61.4428	0.13499
61.7596	4.00336
62.8919	1.03062
63.2916	1.47967
63.9011	0.843164
64.013	12.2449
66.1141	2.97989
66.6128	1.79138
67.0129	18.4452
67.3153	2.48024
68.0979	0.215678
68.2898	2.06023
68.7807	2.59632
70.5397	0.0459651
70.9173	2.27623
71.306	3.31678
71.5999	4.0775
71.7996	1.61622
71.9751	0.517587
72.5483	7.00589
72.6536	0.294642
72.8521	1.188
73.8987	0.134461
74.4543	0.029027
74.7433	0.87844
75.1124	4.75198
75.9758	0.619279
76.1476	0.396061
76.5261	0.0666333
77.0071	0.00704871
78.5801	0.0468259
79.8846	4.08928
80.0771	0.99059
80.2464	2.462
80.9017	0.583657
81.0937	0.00663869
82.1074	7.38947
82.6467	0.152393
82.8263	1.83861
83.6567	0.103732
83.937	0.913373
84.2953	0.00170337
84.8437	0.106144
85.1349	0.0179482
85.3023	1.49294
86.9554	1.08834
87.3122	1.53916
87.6803	4.37717
88.3157	0.98963
88.9624	1.55749
89.152	0.285735