File: xy_files/MgFe2O5.xy
# 2-theta (degrees)	Intensity
18.9862	10.0523
19.6406	100.0
21.8292	0.0565902
26.6132	45.424
26.937	41.598
30.4808	33.87
32.2831	0.156019
33.5904	68.749
34.7465	26.3947
35.9097	47.9859
36.4042	29.1655
37.3264	0.379252
38.0204	0.210838
38.5202	16.1332
38.7254	5.07034
39.8581	17.3617
39.8898	0.820972
39.9397	14.6044
42.07	14.762
44.2967	11.798
44.368	0.105629
44.5052	16.2538
44.6587	0.273242
48.3528	0.0259235
49.1761	0.345418
49.5126	1.3014
50.2756	0.0171873
50.9912	0.191083
51.28	5.10924
52.0188	27.3005
52.4486	0.100577
52.6502	0.00125489
52.838	15.9296
52.9986	42.4975
54.1841	3.43772
54.3172	0.565259
54.816	8.00209
55.0594	14.929
55.1339	0.358971
55.1465	0.0161253
55.2581	1.33972
55.5268	0.746753
55.6124	39.2454
55.9445	2.05967
56.9253	0.0035316
58.2828	0.0750071
58.3927	0.105443
58.5835	0.154028
59.3112	1.0428
59.6578	4.22005
60.7394	0.660291
61.4483	0.131798
61.5509	15.6163
62.2142	7.51865
63.044	32.7005
63.1851	0.0951402
63.1991	0.137757
63.3709	7.73965
63.436	3.9407
65.286	11.6976
65.7325	0.0980656
66.5539	7.14928
66.5643	4.30873
66.7709	13.276
67.1884	2.4373
67.3134	0.0315046
67.4584	0.0396604
67.5624	0.487231
67.6779	4.00913
68.5742	0.0365242
68.621	15.4468
69.2268	0.0697636
69.3139	1.87288
69.8511	0.105912
70.6063	0.608025
70.9116	1.10509
71.1647	0.0737882
72.0669	0.00365111
72.7165	0.04842
72.9837	0.280791
73.2027	2.06408
73.3379	4.0908
73.593	0.00174018
73.8993	1.37278
75.0031	0.968164
75.3065	0.151582
76.127	2.70971
76.4237	0.0266154
76.566	0.300518
76.599	0.991689
76.6421	1.10589
76.8096	4.21372
76.8333	0.15406
77.3261	7.39753
77.5936	0.088654
77.5951	0.0228848
77.6874	0.858475
77.8709	1.08853
77.9859	3.52189
78.3944	0.110893
79.4813	0.00819286
79.5849	4.2239
79.6355	0.0244503
79.7332	1.90923
80.1104	0.0419701
80.3599	0.015496
80.822	0.773787
81.3054	0.5448
81.5105	1.31309
81.9528	0.216554
82.5561	2.74783
83.032	0.109565
83.0725	3.5221
83.5216	1.96225
83.7117	3.38866
84.5783	0.00711999
84.5916	0.0124038
85.3797	0.173026
85.7264	0.575834
85.887	0.012467
85.9551	2.72222
86.0368	1.75389
86.1652	7.03284
86.212	0.0987222
86.629	0.00605872
86.9783	1.32081
87.0888	3.22639
87.2291	0.00293927
87.3371	0.0158135
88.369	0.0241176
88.6252	0.0567792
88.6508	0.92256
88.672	1.69605
89.5038	0.0273195
89.5474	4.3904
89.9118	2.66551