File: xy_files/MgFeO2.xy
# 2-theta (degrees)	Intensity
10.5526	3.79832
14.6454	100.0
21.1959	22.2554
23.2918	0.238489
24.276	36.5209
29.5371	68.4107
30.9612	1.0479
31.0614	0.00551954
32.0283	66.8184
33.3141	36.8985
34.3831	2.15778
34.4909	0.0425716
34.5333	25.4957
34.7043	48.8049
34.7608	18.8404
37.5196	49.5795
37.9137	0.0851092
38.2371	1.64875
39.8116	2.73726
40.6451	0.679021
40.9202	0.599872
41.0215	3.15056
41.2823	2.99766
43.1641	0.0333797
43.3783	16.3222
43.4794	4.24789
44.0268	0.473514
44.4599	0.478575
44.5161	1.18963
44.9614	0.553053
45.6373	0.209975
47.6225	0.197302
48.4336	5.72435
48.8153	9.13232
49.2626	7.95922
49.2725	1.92914
49.701	3.75351
49.745	5.7052
50.0938	1.28604
50.9576	0.427321
51.3053	0.756079
52.4592	7.66998
52.7018	0.647722
53.7288	0.178865
55.352	0.0043853
55.4808	0.211535
55.6725	6.92734
56.0137	1.44541
56.5497	3.8282
57.2022	2.24978
57.7246	1.01815
57.8654	26.4622
58.3725	6.07989
58.8743	4.0448
59.0063	18.1904
59.1004	16.2204
59.5484	0.799858
60.3584	2.35837
60.7085	1.17048
61.1657	0.119213
61.689	0.132158
62.0404	1.49196
62.213	0.0335905
62.4085	1.84982
63.5175	0.294793
63.5401	3.29905
64.1478	2.18579
64.4508	0.314561
64.5492	0.0786501
64.6617	8.36343
64.7569	1.2557
66.5931	0.573136
66.7082	1.65524
66.7923	0.393055
66.8098	23.917
66.9781	0.263884
67.1043	1.42629
67.4828	1.67152
67.643	4.96898
67.8621	1.66048
68.0147	0.0468439
68.1161	0.0164009
68.6882	2.85103
69.3436	0.0885197
69.6971	1.32573
69.9574	0.0138041
69.9601	0.369729
70.2979	0.207728
70.4359	6.62747
70.4685	0.0273621
70.5607	1.0061
70.6496	0.144517
70.733	0.179807
71.2858	0.290837
71.4533	0.0565267
71.7602	0.373304
72.1116	0.00513522
72.4751	0.620942
72.6011	0.73484
72.7748	1.10034
73.1086	0.271843
73.1949	2.36474
73.3615	3.34546
73.403	1.20312
73.6007	0.0546663
73.7723	0.137615
74.4533	1.3823
74.8108	0.0685642
74.9529	4.74574
75.2853	4.52266
75.5107	0.0588786
76.4966	0.530248
76.7538	4.27562
77.0476	0.509719
77.6615	0.0353388
77.9229	0.228866
78.2186	1.4075
78.8459	0.183428
79.1796	0.28544
79.285	0.881288
79.6578	1.92686
79.827	1.49327
79.9956	0.0225172
80.1471	2.17612
80.2753	1.30668
80.4392	0.7764
80.6001	0.604633
81.0397	0.026103
81.2684	0.892757
81.5005	0.00150441
81.7492	0.0105709
81.8465	0.865843
81.9869	0.0413058
82.1072	0.428692
82.1894	0.906409
82.2649	0.0667371
82.4535	0.490375
82.7032	1.74449
82.8203	0.771291
82.948	0.0639416
83.5123	0.348273
83.6391	0.938383
83.8691	3.78312
83.8956	7.41599
84.0865	0.371754
84.246	0.0168997
84.6562	0.559512
85.4825	0.0270294
85.7956	0.0306601
86.0399	0.358816
86.5562	0.0481669
86.7589	0.00901488
86.8448	0.0607152
87.0273	2.41348
87.432	2.9501
87.4923	0.0546876
87.8828	1.81774
87.9923	0.9368
88.2772	0.112194
88.7492	2.55543
88.977	0.769267
89.1102	0.165386
89.2781	0.00431594
89.4069	0.00971673
89.6636	0.0379019
89.9042	0.358983