File: xy_files/MgMn2O4.xy
# 2-theta (degrees)	Intensity
16.2615	0.00912189
17.6642	0.00805459
17.8954	1.8944
19.6518	0.041758
19.6982	6.60579
24.0219	97.8724
24.1749	100.0
24.2328	8.93654
24.3088	0.698475
30.4566	3.47801
30.5489	7.42947
30.9828	20.6853
32.0345	23.8157
32.1227	13.1309
32.4752	0.0714001
32.8626	70.2328
35.1017	5.7379
35.2643	19.3289
35.5489	81.1034
35.7666	12.9302
36.2469	34.1658
37.1793	0.505841
37.231	0.241697
37.4471	7.4119
37.6142	2.79525
37.652	8.60573
37.7164	3.65384
39.4221	0.268134
39.6184	0.420919
39.7776	19.3029
39.9134	19.9829
39.9967	2.69946
40.0106	19.395
40.2164	0.118689
44.1696	0.449828
44.3039	0.117835
45.3914	4.1756
45.5009	4.12331
45.6587	2.47017
45.9201	12.9646
46.0842	0.00515622
48.0311	3.38764
48.7454	2.57702
48.8491	4.28226
49.0368	0.0297639
49.1194	0.043116
49.1895	21.5711
49.5187	23.8995
49.5333	0.245115
49.5539	0.290071
49.6435	17.0477
49.8072	18.537
50.2125	0.0201176
50.9438	2.5474
51.1445	2.55478
51.236	57.0614
51.396	58.7354
51.7469	0.0281601
51.7866	0.0521748
52.4593	10.0878
52.754	1.00374
52.8729	0.0348917
53.5281	2.48095
53.674	4.05857
53.7607	3.0003
53.7902	1.82692
54.4963	3.73556
54.7834	0.36503
54.7847	0.0580065
55.0136	0.00170762
55.301	0.0666442
55.358	0.0815337
55.6273	6.14157
56.0963	0.180727
56.2841	0.113453
56.2906	6.20066
56.3469	4.01953
57.5007	0.0161223
57.7225	0.0708304
58.3059	1.38556
58.4159	5.45622
59.2412	0.0722357
59.5235	5.28217
59.6038	2.44751
59.8129	4.54543
60.0188	0.767542
60.0403	0.37901
60.1124	0.0947569
60.3427	6.2385
60.4246	46.9184
61.5895	5.55334
61.7492	0.357226
62.4518	1.26148
62.575	4.12407
62.9597	0.921569
63.3796	0.566185
63.3811	3.00592
63.5905	2.06799
64.5777	5.85307
65.0332	1.81593
65.1589	0.106452
65.2345	3.94698
65.2621	0.0334255
65.3096	0.0152698
65.463	0.0411727
65.512	22.3959
65.6465	3.43132
65.6527	0.0015347
65.8258	0.580699
65.9114	2.01473
66.0348	0.407393
66.1401	0.133381
66.2396	4.31255
66.9885	0.076104
67.1919	0.185808
67.3045	4.39033
67.8652	5.6302
67.9152	0.848511
67.9832	4.22976
68.0068	0.00365466
68.278	5.32607
68.4904	1.9718
68.5742	0.246848
68.6818	0.0418445
68.9061	1.91412
69.0456	0.191953
69.079	0.342924
69.6512	4.80678
69.8841	5.51541
70.018	0.0115816
70.2855	0.387089
70.3167	0.0220863
70.4512	1.59261
70.8591	6.8225
70.9252	6.87336
71.0654	0.0321771
71.4395	0.0277689
71.544	3.84196
71.6435	1.52013
71.6699	0.0424785
71.7746	0.0978117
71.7836	1.42284
71.7907	0.229435
71.9065	0.949154
71.9151	0.554348
72.0466	2.74066
72.267	1.52195
72.4401	3.46456
72.5646	1.51916
72.6216	4.5539
72.6627	0.348891
72.9648	4.07188
73.2613	1.28441
73.5057	0.306298
73.8497	0.243948
73.9472	0.211679
74.1851	0.135234
74.5741	0.334735
75.2574	11.1433
75.7815	2.23001
76.7251	2.57564
76.9437	3.79857
77.1738	3.54592
77.2611	0.793806
77.2623	0.049696
77.3686	0.00815213
77.4993	0.0132957
77.5633	0.0101943
77.6461	3.83751
77.6711	0.0303263
77.6884	1.53198
77.8367	1.19513
77.9703	0.544576
78.0069	1.20671
78.0553	0.0498856
78.098	0.677304
78.2622	1.02927
78.3424	1.84747
79.2227	0.00829782
79.3498	0.00790925
79.4312	1.52293
79.436	0.0362191
79.7021	0.002796
79.8828	4.8638
79.9865	0.00612941
80.227	0.464681
80.2962	1.92842
80.3378	1.3862
80.3899	5.56553
80.534	0.00893702
80.5495	2.28645
81.795	0.944196
81.9196	2.91969
81.9369	1.07958
82.0952	0.00316304
82.2842	0.0241226
82.4711	0.973305
82.5683	1.7628
82.9617	0.149129
83.1843	0.0736263
83.3415	0.0929353
84.3043	0.00445637
84.6588	1.55678
84.8172	0.00234622
84.8391	0.415176
85.1793	1.88817
85.289	2.08649
85.3405	0.55876
85.5634	1.76138
85.7486	1.0507
85.7922	0.0381356
85.8922	0.101356
86.0973	6.87257
86.3119	0.77497
86.3476	7.66946
86.3588	0.0108041
86.3744	0.0800224
86.4787	0.429959
86.729	0.611443
86.8479	1.89432
86.879	0.00435912
87.0668	2.35318
87.0841	3.05496
87.5061	0.187053
88.0474	0.00906882
88.0722	0.44357
88.1035	0.0172894
88.195	0.591571
88.3217	1.06579
88.6721	1.1577
88.8214	0.628981
88.8509	2.31793
88.8536	0.0290026
88.8621	1.2506
88.9871	0.256938
89.2837	0.00169032
89.322	1.16331
89.4883	1.15457
89.5047	1.11048
89.6601	2.82767
89.6756	1.40155
89.9879	1.61287