File: xy_files/MgMn3O6.xy
# 2-theta (degrees)	Intensity
11.7405	10.8336
16.6596	100
19.4771	48.0512
21.3408	34.3106
23.6066	1.89536
27.6642	18.3778
30.3451	12.3154
30.9414	1.91949
33.6851	16.6283
34.6621	0.677605
35.0597	12.443
35.3283	38.1587
35.6215	13.7915
35.7365	28.8497
36.8856	0.161555
38.1171	0.193402
38.5207	30.8347
39.5472	1.14974
40.0601	0.12293
41.1732	17.537
42.9315	0.984886
43.4704	0.0262161
45.2212	7.32387
45.9358	1.03641
46.8335	1.20903
47.325	11.4675
47.467	5.84867
48.2973	0.387892
48.3204	64.0363
49.7611	2.15535
50.8808	26.1968
51.5214	0.0635763
51.8068	1.40952
52.4262	21.8044
52.6529	0.464927
53.0867	1.77826
53.6566	0.0567127
54.2311	4.19516
54.2473	1.59139
55.0706	0.944442
56.9878	4.46853
57.13	0.429347
57.5943	1.00534
59.7011	2.22286
60.763	4.03562
60.9891	3.78766
61.4164	0.0542062
61.5118	0.0660348
61.8742	3.48688
62.3807	2.70675
62.3959	1.12753
63.1283	0.115792
63.1476	13.0995
63.9423	23.966
64.4833	0.220094
64.9872	5.63297
65.6347	7.06544
65.8128	3.49304
66.0057	1.08079
66.4817	0.154618
66.6139	3.18645
66.7671	2.48694
67.4725	2.16155
67.487	0.48051
68.1746	1.64135
68.407	0.170064
68.5438	0.195232
69.1732	1.04038
70.2828	1.97064
70.7215	0.148899
70.8286	5.22672
71.1909	5.58063
71.6577	1.67411
71.8289	0.951778
73.1371	0.0857652
73.237	1.68811
73.4538	0.411393
73.5133	3.78929
74.0848	0.129559
74.7277	5.97616
75.3826	0.0914867
75.4319	0.0595752
75.7089	1.58105
76.1783	0.928505
76.2052	0.0106361
76.699	0.11829
77.1268	0.249611
77.2714	2.71273
77.3243	0.898126
77.333	1.55581
77.9853	5.47512
78.2046	3.64131
78.5016	0.106399
78.6132	0.0307973
79.3814	0.7445
79.7307	2.96231
79.7802	0.0176163
79.9361	0.00650149
80.1631	0.0535133
80.2519	0.866579
80.973	1.20905
81.5467	5.40801
82.0644	0.0434944
82.5574	4.18397
82.8452	0.0947099
83.2651	0.169341
83.2833	0.136834
83.6721	7.8685
84.395	0.833709
85.1584	0.00542139
85.761	0.0881481
85.8682	1.13046
85.9855	0.644313
86.4754	8.34741
87.0021	0.777763
87.9379	0.731124
88.6098	0.493507
89.1728	0.347732
89.1904	0.632601
89.376	2.96023
89.7794	0.0411111