File: xy_files/MgMn2(FeO2)4.xy
# 2-theta (degrees)	Intensity
16.3313	36.6224
17.3524	0.0789183
17.7017	4.95771
18.5475	43.1564
18.9119	1.61414
20.2629	2.78577
21.4524	11.1286
26.161	16.2698
27.564	7.9737
29.4595	37.8315
29.6103	1.02593
29.7425	38.9818
29.89	27.373
30.3132	26.8078
31.9662	47.2707
32.5547	7.79071
32.5574	56.2605
33.0067	100.0
33.1603	51.1256
34.0545	46.7719
34.2838	4.43506
34.7266	55.7216
35.0464	47.251
35.1195	36.3262
35.129	49.7807
35.8289	45.1056
35.8445	11.4799
36.3983	47.2165
37.6046	2.30727
38.365	63.3346
40.5417	0.313923
41.1966	83.1674
41.4926	9.29543
41.8887	0.549925
42.7515	11.5605
43.504	13.5864
43.7068	91.6257
44.0574	8.9142
44.7606	0.0924914
45.5855	0.402872
45.681	0.0582241
45.9464	1.87466
45.9502	3.13876
45.9819	0.426272
46.1437	0.0207727
46.4953	12.1706
46.5798	2.43653
46.7742	5.90799
46.8181	11.4951
46.9973	0.00612367
47.4992	10.587
47.5241	32.8606
47.8081	1.83776
48.5366	10.2658
48.711	1.76537
48.7245	3.87814
48.7807	61.9317
49.5041	4.31606
49.823	3.79044
49.8349	2.75837
50.1263	0.275414
50.4415	0.125534
50.6342	11.1896
51.3113	8.36479
52.2688	0.416768
52.3417	7.62752
52.619	4.53982
52.963	27.3382
53.0595	8.21506
53.145	4.68858
53.4142	2.83868
53.5782	0.0689769
53.8148	9.11568
53.8262	51.332
54.8849	1.02775
54.9793	14.0424
55.3178	7.38067
55.4355	12.0725
55.6752	1.33088
56.337	11.2233
56.8957	0.0143742
56.9084	36.0845
56.9712	9.43222
57.0587	0.182136
57.2067	1.22679
57.8043	11.7843
57.8226	5.53025
58.0965	7.04598
58.4526	0.198368
58.8853	0.249615
59.0585	1.14424
59.1969	0.951179
59.2939	0.1954
59.9798	1.29304
60.4911	2.41895
61.1305	45.8344
61.4697	18.8217
61.4813	12.9461
61.696	1.34214
61.7672	49.3792
61.8983	10.6263
61.9606	10.938
61.9653	0.147441
62.0996	31.0942
62.1304	4.96918
62.8645	3.64972
62.8787	0.00178336
62.8892	2.73125
63.0561	2.65687
63.1817	2.55145
63.6452	0.105855
63.7033	4.15807
63.9807	8.32774
64.0029	0.032309
64.391	0.14443
64.4114	0.187594
64.4205	2.72025
64.4893	1.09054
64.5755	0.159197
64.7596	0.895305
65.0469	0.698005
65.3248	0.0307765
65.4418	1.55457
65.5278	0.14639
65.6699	1.35228
65.6865	0.254008
65.7753	1.62268
65.7949	2.94655
66.2434	3.82515
66.7235	1.44974
66.7874	0.829964
66.8311	10.2908
67.4097	0.115305
67.6455	0.942148
67.6677	5.89993
67.835	1.77727
67.8834	2.24886
67.9476	0.229504
67.9608	0.368234
68.1592	0.803273
68.1912	1.45763
68.1974	11.383
68.7686	4.08355
69.1862	4.33767
69.2417	26.8581
69.3636	2.26989
69.404	0.367316
69.5888	0.018437
69.5999	10.8533
69.685	0.365808
69.7179	1.87502
70.7606	1.94987
71.5595	0.511054
71.6984	12.6819
71.7663	0.264361
71.8073	0.00529247
71.9086	0.506059
72.0425	0.280667
72.0819	0.597571
72.2221	5.17362
72.24	2.18378
72.5808	0.0380376
72.6749	4.31477
72.8076	0.455436
72.9477	0.452003
72.9852	5.18146
73.2905	1.41386
73.6299	2.93802
74.0309	0.529862
74.0529	9.7874
74.2276	5.2242
74.2503	9.65289
74.3267	4.42445
74.6032	0.280843
74.9535	0.369736
75.0709	3.9776
75.6707	1.22186
75.932	0.677297
75.9605	0.0355816
75.965	3.33268
75.9695	8.46184
76.016	0.0343966
76.2309	4.87011
76.3994	0.386785
76.6362	0.147454
77.3119	7.4001
77.344	0.19439
77.458	0.63011
78.2382	0.0487697
78.5058	5.367
78.775	0.0154119
78.9147	0.221509
79.1047	3.06835
79.2726	0.0903973
79.277	0.0318269
79.2776	0.56878
79.2935	1.01887
79.5184	1.49105
79.7166	1.16204
79.913	1.36444
80.2558	0.0129511
80.2724	14.9654
80.3433	0.0890086
80.4101	2.74065
80.486	0.00827218
80.4944	11.3232
80.6132	2.57835
80.6491	0.131919
80.8765	0.400623
81.0385	0.264343
81.4158	0.207386
81.5743	0.555353
81.6687	0.68248
81.7323	4.85919
81.8762	5.671
81.9969	3.71146
82.1194	3.51337
82.1668	12.8822
82.2364	0.208081
82.2696	1.30978
82.3933	0.0102657
82.4794	1.5646
82.5726	0.598337
82.6088	0.0193065
82.6283	2.54282
82.6394	0.140928
82.7892	0.691068
83.8198	7.5869
83.8963	0.00681297
83.9134	0.305452
84.0915	1.29251
84.1437	0.896607
84.3268	7.79591
84.3514	0.00169958
84.546	1.57888
84.5476	0.922677
84.6587	0.518353
84.9142	0.226781
84.9672	1.58817
85.0837	1.45695
85.5246	0.0514509
85.5483	0.668493
85.5558	0.178059
85.6015	0.205802
85.7591	0.00568926
85.8142	0.377958
85.9594	2.96745
85.9925	0.00370124
86.0361	0.34436
86.0457	1.10957
86.2566	0.306845
86.4687	0.0189166
86.5605	3.05834
86.5917	0.492484
86.8152	0.393899
86.8728	0.00425749
86.9426	3.39977
87.4381	0.0871495
87.6262	2.74993
87.7229	8.3006
87.7688	2.2475
88.0334	3.13606
88.3533	0.127563
88.3561	0.14391
88.3961	0.00573453
88.4931	0.0039316
88.68	0.0307555
88.724	0.741227
88.8143	0.0805613
88.8974	1.30323
88.9763	0.028545
89.1403	1.40714
89.4213	0.0118246
89.4377	7.62557
89.4533	0.165996
89.4699	0.00794616
89.851	0.039409
89.9094	1.39841