File: xy_files/MgMn2O5.xy
# 2-theta (degrees)	Intensity
15.607	1.94285
18.1503	100.0
19.7755	0.209382
24.0244	16.6002
25.6438	42.5358
26.8383	36.198
29.8554	38.3864
30.1593	0.226761
31.5133	17.6089
35.0607	34.9489
36.6054	8.72182
36.6797	6.35498
36.777	13.1293
37.5549	13.6941
37.6503	2.1071
40.0826	4.14174
40.1729	5.95926
41.0601	5.0006
43.9618	2.90874
44.0256	0.00929467
44.1093	5.34182
47.8509	0.825335
48.0743	16.0983
49.0223	24.6072
49.1178	3.67967
49.1948	10.0156
51.7645	0.134903
51.7999	11.9357
52.6986	9.64562
52.9179	5.68385
53.3596	0.0218215
53.577	1.47362
55.1418	1.64583
55.2127	0.229996
55.2729	2.62905
55.3099	2.83503
55.5221	9.16614
56.4829	1.1169
57.1141	4.21316
58.463	9.40375
58.6677	1.35484
58.9815	0.00351201
59.4504	4.32761
60.0939	0.276859
61.9557	3.84252
62.0158	6.37163
62.0216	2.12554
62.7079	3.70979
62.8233	3.89907
62.9043	17.2318
63.2666	8.19373
63.4154	1.19523
65.1739	2.38139
65.7905	1.16478
66.1274	0.0037489
67.9406	1.2476
68.0512	2.69956
68.1289	0.669301
68.8804	0.0797531
69.4928	5.49333
69.5549	1.59582
71.0991	8.27242
71.2315	0.0742747
71.8458	1.40839
71.9857	5.39459
72.2769	4.66572
72.8305	2.68095
74.0872	6.72641
74.2687	1.75066
74.4817	1.08574
76.9209	0.164679
77.2053	0.148359
77.2703	0.749698
77.6999	1.18934
77.7568	0.02611
77.8164	0.00383917
77.9977	0.733692
78.2357	0.0732672
78.2399	1.26357
78.2514	0.723127
78.5371	3.02181
78.7747	0.00867689
79.8537	0.0263689
80.3857	0.00149923
80.971	4.02787
81.0904	0.929065
81.1211	0.213192
81.2979	1.00543
82.5261	3.12296
82.8197	4.98525
82.8248	1.5685
83.0544	2.21576
83.4818	0.64275
84.0131	1.3335
84.2307	2.84735
85.5126	0.622111
85.6041	0.292688
85.7576	0.325091
86.225	0.980228
86.2415	0.276955
86.5332	0.00182844
86.7666	0.115702
86.8263	0.0372156
86.8847	0.691529
88.2488	0.06088
88.3678	1.78692
89.0785	0.0533007
89.2532	0.0400532
89.7093	1.66499