File: xy_files/MgMn4O9.xy
# 2-theta (degrees)	Intensity
14.756	0.101773
18.5328	84.0142
20.9267	8.13352
21.3063	10.2544
23.7714	26.9521
28.0935	14.4416
29.7641	19.0204
30.0384	100.0
33.3742	66.2544
35.292	4.20142
36.8958	1.23254
37.5739	14.3791
38.442	5.42782
39.0972	6.1917
40.5722	0.105901
42.5952	2.07893
42.7969	4.47025
43.3974	0.0717509
44.7557	36.9806
45.3179	0.00465573
46.8198	1.12532
47.9181	41.2894
48.1021	6.40285
48.651	0.905856
49.3592	0.335024
49.8977	6.44017
51.122	1.55151
51.8054	33.4368
54.6765	7.55672
55.1626	0.633026
57.5963	20.912
57.7728	0.965409
58.0809	0.464093
58.7086	6.42486
58.883	0.715672
59.1875	8.30876
59.9804	0.0813921
61.8159	1.32699
61.9709	2.05239
62.1398	0.562444
62.4347	4.55035
63.2033	20.4397
63.9391	5.2356
65.1371	3.42461
66.0245	3.79026
66.3371	1.89747
67.203	4.01923
67.3647	0.306037
67.6473	20.6644
68.3847	10.4409
68.6652	0.381698
69.238	2.89927
70.0997	9.75631
70.2451	0.414659
71.4034	2.43439
71.6787	3.63943
73.2303	8.32834
74.2146	0.33803
74.3696	0.00604405
74.6405	0.0424965
75.3484	3.37401
76.3229	0.0679289
76.5914	0.689772
78.1076	2.76456
78.2601	0.3735
78.5266	0.302981
79.4891	0.210541
79.8934	2.55634
80.1964	1.1474
81.1539	0.00293274
81.8075	0.260465
82.1089	0.0324697
82.3598	1.45264
82.8988	2.10477
83.0492	11.8918
83.3121	0.293709
84.0001	0.158618
84.0126	0.163752
84.7995	2.02634
84.9618	0.489469
85.7476	1.40014
86.8439	1.31983
87.1054	5.59078
87.5036	0.853438
87.8023	0.432632
88.7476	0.463585
89.68	0.360593
89.6925	8.6126