File: xy_files/MgMnO2.xy
# 2-theta (degrees)	Intensity
17.0124	0.761679
18.6906	29.7894
23.8731	11.3212
30.7119	9.02383
33.6115	13.5096
33.6616	22.5352
33.8637	23.1859
34.4149	24.6588
34.7275	22.6228
34.7762	51.0876
37.903	7.42409
37.9481	17.0585
38.4484	0.0367822
42.7473	49.2606
42.7882	100.0
45.646	0.165033
45.8935	8.15531
46.787	4.72928
48.4575	3.06628
48.8695	19.3566
48.9063	31.618
52.2017	0.115006
52.5205	1.90334
52.6866	0.321716
54.5449	5.00124
55.641	1.32654
55.9912	14.7328
56.0247	31.1747
57.8661	0.00796462
58.3071	0.0562852
60.1357	44.4655
60.2317	22.4158
60.8559	0.147904
61.2951	1.98114
62.9873	0.054886
63.0807	0.0375152
63.3339	0.0507005
63.6562	1.74907
63.9609	1.84068
63.9918	3.88619
64.3137	2.15996
65.0288	0.614867
65.7362	1.05397
66.4537	0.0408271
69.1305	1.3159
69.4923	0.0284302
70.6559	1.06988
70.7734	2.95336
71.1608	13.6408
71.2487	6.69548
71.3188	3.50815
71.4359	5.67489
71.7534	1.14527
72.5505	11.3719
72.7363	3.84616
72.7654	8.91332
73.2927	0.643996
73.4085	1.07483
73.7599	0.0032281
75.0445	0.124298
76.5389	7.28447
76.653	13.8767
76.7031	1.00298
77.0291	0.00482363
78.7889	0.585776
79.56	1.5746
79.9802	0.0407337
80.1602	0.978294
80.6998	0.555891
81.0132	2.26906
81.1255	7.26084
82.3758	1.89035
82.4038	3.15198
83.7206	0.0366675
83.8629	1.09727
84.0235	0.316709
84.1072	0.14601
84.9639	0.0136735
85.6092	2.38504
85.8657	0.440165
86.5102	0.647441
86.6893	3.97272
86.8004	7.10613
88.2619	0.00148775
88.7474	0.0229793
89.6104	0.143533