File: xy_files/MgMn4O8.xy
# 2-theta (degrees)	Intensity
16.9643	1.31222
17.911	100.0
17.9568	1.15887
18.3386	3.16329
20.75	0.651196
22.6494	0.147729
22.7274	0.172855
26.7263	2.96494
27.9576	1.83951
29.9614	0.0691365
29.9642	0.406
30.5833	0.69318
30.6708	0.767896
31.7916	0.616629
32.3796	0.550932
34.3153	13.4628
34.4999	0.326838
35.1982	9.17658
35.5902	0.670653
36.1771	4.80383
36.2795	4.51703
36.3747	10.0799
37.1692	3.91171
37.2039	0.801575
37.2738	4.03055
37.5952	0.665306
40.1162	0.122248
40.3234	0.0418621
40.6686	0.10098
41.6025	24.6642
42.0862	0.152808
42.2225	22.7562
42.8688	0.290254
44.0799	0.202108
44.1407	20.3771
45.6035	0.0400703
45.7869	0.032122
46.0237	0.0206192
46.2498	2.13019
46.4162	2.40968
46.6399	0.102571
46.8442	0.0834522
47.0137	0.104594
47.1863	2.74607
47.2526	0.027542
47.4671	0.0188867
48.1346	0.0846574
48.5348	0.00937954
49.1179	0.0283563
50.0289	0.0509502
50.4928	0.0192137
50.5272	0.43005
50.5381	0.650965
51.7626	0.592044
51.8061	0.138506
52.5274	0.327519
52.692	0.678663
52.8081	0.00527196
53.3005	0.0836104
53.4565	0.0271404
54.9918	0.120274
55.064	4.24787
55.1294	0.00703916
55.1341	0.859616
55.1507	0.582261
55.244	1.08069
55.4054	0.70278
55.4594	5.03678
55.6065	0.185142
55.6799	0.495481
55.8334	0.366101
56.2629	0.234015
57.1171	0.00325376
57.1237	1.05216
57.7705	0.494018
57.7795	3.90861
57.9898	0.496331
58.6094	0.538729
58.6348	0.150459
58.9794	0.014243
59.7574	0.0180124
60.0391	0.484978
60.6285	6.75968
60.9122	5.10493
60.9928	0.0154366
61.3059	0.0150124
61.3861	4.628
61.5188	0.0413401
61.5929	0.531746
62.2607	4.88941
62.267	6.31159
62.2963	0.0308446
62.8374	0.55921
62.9642	0.0142841
63.6296	0.31141
63.6686	2.81807
63.8675	1.87119
63.8897	0.222007
64.0592	5.96837
64.119	0.0420284
64.192	0.267246
64.393	0.0379071
64.7509	0.0766849
64.7713	2.07895
65.113	0.0196442
65.4091	0.144009
65.6737	0.00177959
65.8033	0.00140429
65.9495	2.20203
66.1203	0.0125184
66.3915	0.00933895
66.4294	2.34624
66.9646	0.0241518
67.1051	0.0269222
67.2089	0.0327988
67.3635	0.154656
67.7855	1.7025
67.8039	0.00893899
68.7373	0.0911744
68.7816	0.0312143
68.7861	0.00556129
69.9486	0.00547641
70.4303	0.132418
70.958	0.153776
71.0113	0.378433
71.6277	0.0778182
71.6542	0.983326
71.8611	0.19054
72.1871	0.563088
72.3147	0.877286
72.4432	0.00170527
72.4476	0.0360905
72.4713	0.421028
72.4796	0.113965
72.505	0.681023
72.559	0.975062
72.752	0.858273
72.9326	0.712895
72.9379	0.13799
73.0475	0.00279057
73.1311	0.757838
73.2181	0.115839
73.2989	0.136506
73.4564	0.178873
73.6415	0.108763
73.7094	0.106242
73.9486	1.32108
73.9665	0.115834
74.416	0.808863
74.5908	0.049646
74.6101	0.774384
75.0401	0.104412
75.2875	0.480737
75.3566	0.742829
75.4162	0.641161
75.4891	0.198866
75.506	0.954296
75.7244	0.142893
76.0853	0.70091
76.7745	2.59626
76.8427	0.156051
77.0229	1.45599
77.1865	0.55892
77.2019	0.00955085
77.2178	0.140923
77.2543	0.629324
77.6462	0.142823
78.3798	0.0824401
78.6627	0.0198748
78.6873	0.0255967
78.7029	0.666756
79.1978	2.65968
79.2832	1.28788
79.3036	0.0427306
79.4554	2.61177
79.6231	0.0425667
79.6449	0.162302
80.2135	0.114473
80.2492	1.25828
80.5059	0.0216733
80.508	0.0367988
80.5299	0.0116812
80.5683	0.385652
81.077	0.0226537
81.1207	1.09743
81.7932	0.200907
82.0146	0.00458162
82.4318	0.0851386
82.9949	0.00454187
83.0143	0.104173
83.1465	0.034497
83.3388	0.0411325
83.5434	0.0663967
83.6308	0.0853299
83.7083	0.0752637
83.9193	0.049952
84.1023	0.00865255
84.1774	0.0289019
84.3914	0.0805893
84.5291	0.00318911
84.6038	0.436849
84.8751	0.0208792
84.9062	0.00824203
85.2151	0.0151
85.3678	0.104607
85.7392	0.0131041
85.8425	0.00616644
85.8591	0.0175946
85.9487	0.0205742
86.0402	0.0356217
86.245	0.0846941
86.3066	0.107969
86.4694	0.0427259
86.602	0.0536496
86.6201	0.164729
86.7206	0.224102
86.8184	0.0367977
87.156	0.250422
87.3699	1.04981
87.6171	0.0467361
87.7943	0.137473
87.9237	0.188113
87.9626	0.0237294
87.9906	0.00201264
88.0536	0.157804
88.5012	0.0567949
88.6601	0.0701018
88.7078	0.0374448
88.8243	0.0660267
88.923	0.994084
89.3024	0.00432992
89.3491	0.00163737
89.3568	0.104116
89.4304	0.0177484
89.8389	0.0252167
89.8484	0.00823906
89.9193	0.772046
89.9352	0.162962
89.9447	0.00985135
89.9921	0.34342