File: xy_files/MgMnO3.xy
# 2-theta (degrees)	Intensity
23.8191	70.4551
33.9372	100
41.8859	2.64743
48.7535	64.498
54.9616	20.8269
60.7284	36.0244
71.4217	33.5872
76.5011	8.07622
81.4744	14.9186
86.3836	0.146805