File: xy_files/MgMn3FeO8.xy
# 2-theta (degrees)	Intensity
18.1102	100.0
18.2055	62.8999
18.3792	35.7359
20.3717	1.70215
21.4181	2.37198
29.5571	0.782081
29.8968	1.2134
30.4226	0.825917
30.5204	0.451754
34.2247	4.60835
34.4267	11.3125
34.6713	6.69721
35.6237	7.66647
35.6321	6.08719
35.7764	23.8335
35.9119	7.86526
36.6937	9.75611
36.892	16.9358
37.2537	8.26808
41.4255	48.6043
43.6341	86.8086
46.3139	3.53374
46.4369	3.70589
46.7846	1.66659
46.8668	0.193626
47.0086	3.2253
47.3267	0.370658
47.5593	0.560673
47.5792	2.31076
47.9007	3.54051
48.3824	0.599158
48.8314	0.290752
49.0372	0.218087
49.1685	0.202112
51.8922	0.0926111
52.2563	0.536067
52.7434	0.317455
53.4375	0.205466
53.5236	0.269549
53.7327	0.0866958
54.064	0.14716
54.6812	7.3551
54.9237	2.7404
55.1956	1.81054
56.3482	0.703905
56.6688	1.33898
57.254	0.13555
57.4872	2.96677
57.5108	8.8809
57.6867	3.00906
57.8098	3.86796
61.35	23.5164
62.1149	24.4488
63.3041	11.9865
63.526	10.9749
63.6749	1.33063
63.8681	1.33786
64.0818	0.0174312
64.3362	6.7463
64.6107	1.34707
65.3889	1.76616
65.4596	1.82251
65.6398	0.1236
65.9004	0.198851
66.0138	1.689
66.2197	2.86491
66.2689	0.024684
66.4396	4.34616
66.5047	1.40136
66.5314	1.49327
66.7443	0.0535447
66.8715	1.43864
67.0999	0.230886
67.2501	0.0809083
67.7614	0.0827681
67.8293	0.103062
68.134	0.0405252
68.6774	0.106319
71.3173	0.0447569
71.8498	0.117166
71.8984	0.116708
72.039	0.311806
72.0549	0.023214
72.1002	2.31116
72.5783	3.94932
72.5847	0.743612
73.159	1.7949
73.362	1.73436
73.772	1.00716
73.9728	0.816083
74.2355	1.49715
74.8217	0.903206
75.4373	3.41272
75.4576	2.97888
75.8053	2.71138
76.1323	2.90318
78.0319	4.7287
78.2103	0.264957
78.4986	0.740232
78.5173	10.7362
78.8118	0.254508
79.4059	5.16905
80.1724	4.34154
80.2315	0.0843222
80.3231	0.912433
81.1763	0.906621
81.2553	0.00300174
81.452	1.3947
82.12	0.0168403
82.8723	0.232491
82.8871	1.08665
82.9173	0.415745
82.9874	1.47773
83.1268	1.27601
83.1389	0.0887521
83.2566	0.440873
83.4114	0.734691
83.983	0.0432839
84.0217	0.0537137
84.2822	0.0372848
84.4298	0.0953402
84.9373	0.00497394
85.5438	0.0256196
85.9212	0.539589
86.0044	0.00313541
86.1793	0.271518
86.1928	0.0584763
86.7699	0.250343
86.8677	0.14569
87.1023	0.495493
87.354	0.101388
87.4534	0.0363931
87.4926	0.0153572
87.6612	0.0720967
87.9853	0.608929
88.2961	0.0518806
88.431	2.88796
88.8522	0.72194
89.6699	0.618285
89.7511	0.411298
89.7657	0.369338
89.8052	0.475099