File: xy_files/MgMn4(FeO4)2.xy
# 2-theta (degrees)	Intensity
16.4011	26.2374
17.5509	7.83201
17.5818	1.75283
17.7212	3.86478
19.5096	0.791659
19.8688	2.37122
20.6853	2.59074
27.1291	14.7271
27.7833	11.5601
28.2211	9.07952
28.8202	51.6185
29.3639	47.7061
29.4381	47.9541
31.6533	20.898
32.191	17.3812
32.9882	50.9462
33.0394	67.9513
33.1508	100.0
33.2551	5.37656
33.3532	49.9627
33.6337	67.5452
33.8025	64.6704
34.0844	62.6799
34.402	60.5866
34.6258	60.2
35.0491	50.1876
35.5313	10.0422
35.5954	9.39327
35.8849	5.91548
39.6154	77.0352
40.3685	79.5643
41.8298	0.196796
42.0861	69.6639
42.7127	1.32822
43.2537	1.08508
43.3184	13.6384
43.5594	17.8337
44.0222	14.443
44.0837	17.4875
44.2173	8.00109
44.9237	11.9439
44.9542	14.7632
45.0654	0.24947
45.2443	1.08943
45.7398	13.0668
45.7815	1.49876
45.8155	0.0145319
45.942	1.96331
45.9971	0.0832113
46.1435	13.096
46.3195	0.488328
46.5922	0.149506
47.2727	0.0277312
47.7497	0.219117
47.8147	0.378069
49.0382	0.267122
50.0679	3.08109
50.165	2.65365
50.4301	2.46371
50.6707	0.105358
50.9635	1.34747
51.0722	37.7449
51.3594	9.16954
51.4992	9.56782
51.5942	1.44275
52.0245	0.940225
52.1067	31.1927
52.462	2.94244
52.5056	8.08844
52.5207	3.73652
53.2666	1.88251
53.5199	10.3948
53.5878	2.11063
54.2511	32.3182
54.2616	10.2926
54.4759	12.2379
54.5788	15.8748
55.0444	15.9452
55.3911	1.37336
55.6476	1.06077
55.9494	37.5604
56.2934	16.6935
57.3933	37.603
58.0517	13.8629
58.3642	33.2211
58.6699	14.169
58.7418	0.905466
58.7708	8.43983
59.67	1.004
59.6986	62.8135
59.7729	1.02998
59.9097	8.80243
60.1805	0.892188
60.3869	0.944661
60.4307	0.679109
60.7015	11.0793
60.9159	56.5698
61.0826	55.8548
61.1008	5.88052
61.2201	11.323
61.6951	0.408255
61.8343	6.72246
61.9945	0.792665
62.2138	0.0104219
62.3375	5.75127
62.5287	0.29724
62.5648	0.0505326
62.7318	0.224595
62.9186	4.03543
62.919	0.34246
62.9627	0.00308842
63.0598	0.125976
63.1484	0.158173
63.535	0.500955
63.608	0.0151718
63.7023	0.00966299
63.892	4.33297
63.9857	0.101454
64.079	0.263275
64.3639	0.713053
64.5642	0.438588
64.6838	0.0119059
64.7363	0.0149398
64.7515	0.00829181
64.8187	0.0128817
64.8875	1.33831
64.9781	0.166241
65.1773	3.32611
65.5603	1.00969
66.1116	1.01583
66.2356	1.16557
66.4835	1.33507
66.828	2.86
67.2891	0.547612
67.3495	1.02535
67.3914	0.722736
67.5307	0.120295
67.9356	0.0577682
69.1984	13.1921
69.318	11.7648
69.398	1.9633
69.5471	0.904231
69.5778	25.004
69.7791	1.69468
69.8214	0.727535
69.8229	0.541551
69.9642	0.44452
70.0507	13.218
70.6017	0.259072
70.708	11.625
71.0989	0.948398
71.1046	2.50259
71.1306	5.78242
71.1553	5.32138
71.768	0.477509
71.7689	1.4268
71.8857	3.11151
72.2053	6.90205
72.5198	10.4715
73.0509	10.3805
73.1053	6.45903
73.3397	0.33182
73.6432	4.27951
73.7604	3.92399
73.9702	0.313827
74.0595	1.7031
74.6336	0.443689
74.6352	0.328752
74.7028	0.0733103
74.7485	7.1263
74.9535	4.14087
75.2151	7.27019
75.3691	8.00695
75.3885	0.568919
75.5493	4.67873
75.9188	1.65363
76.0052	0.21266
76.0672	9.62445
76.1	0.682211
76.2829	0.365617
76.3216	0.844581
76.3771	0.00682354
76.7185	0.935772
76.9497	5.18869
77.2378	3.1114
77.6623	1.01344
77.735	0.767214
77.7847	0.00889053
77.8028	0.352356
78.0009	0.0765571
78.2506	0.00515952
78.2699	3.30615
78.4971	0.70928
78.5596	2.10622
78.8679	0.141743
78.9189	0.00229332
79.0058	0.00471002
79.1258	0.826513
79.2029	1.10903
79.2907	0.00612098
79.3744	0.125867
79.5186	0.0298158
79.6828	0.238986
79.7134	0.00113215
79.7301	0.0440304
79.8194	0.015905
79.8775	1.51886
79.8821	0.0475523
79.953	0.179113
80.353	0.0602225
80.6602	1.59359
81.063	0.543055
81.3163	0.025001
81.3399	0.0821107
81.4475	0.509798
81.4928	0.0403316
81.6191	0.00697907
81.8941	0.0701848
82.1359	0.877925
82.4855	0.17674
82.5525	1.95716
82.7362	1.98289
82.7712	0.65504
82.912	6.09922
83.028	0.00232469
83.0372	0.00399621
83.2242	1.31032
83.3516	1.84661
83.395	0.866049
83.645	1.92468
83.6626	1.43088
83.9363	0.699029
84.1124	3.22111
84.2386	8.45641
84.25	4.24798
84.2889	0.300611
84.6156	3.02588
84.6536	0.617399
84.6888	0.167547
84.7397	0.970916
84.8636	1.77513
84.8996	1.3631
84.9734	1.82819
85.0253	0.035193
85.0467	3.19747
85.1155	3.31597
85.3328	10.1309
85.5638	3.15698
85.5735	6.411
85.6764	1.14496
85.683	3.31539
85.7194	4.14498
85.8619	0.0398656
85.9952	2.23474
86.2685	2.2376
86.4084	4.08891
86.7707	4.36885
87.1314	0.666538
87.161	0.266543
87.273	8.06839
87.5188	0.375042
87.6227	0.176733
87.9729	0.0677273
88.3512	4.3822
88.4052	4.40668
88.6089	2.96658
88.9772	0.221937
89.0504	0.246951
89.4368	0.306176
89.5487	0.04751
89.7443	0.0905963
89.7939	0.233001