File: xy_files/MgMn4FeO8.xy
# 2-theta (degrees)	Intensity
17.5325	1.57532
17.7107	100.0
17.9257	33.5627
18.1825	5.92345
19.6217	2.32369
20.4318	2.43154
21.7738	12.9282
28.422	5.28903
28.5294	6.55092
29.2007	0.849228
29.4982	0.860476
29.7434	0.995459
30.5578	0.999663
33.0339	17.8386
33.2061	1.16496
33.3296	2.29784
33.6395	1.58246
33.9204	6.29242
33.9712	0.587019
34.5589	0.995038
34.7439	8.7344
35.4782	0.502147
35.4932	19.7069
35.7999	5.80661
35.8632	19.3775
36.136	11.2049
36.31	17.2083
36.4958	0.554039
36.8441	16.6996
39.8503	70.76
41.552	62.0125
44.3877	53.5793
44.4249	0.00996353
44.5462	0.620429
44.8269	3.48517
45.1135	0.497501
45.258	0.513224
45.2728	1.02899
45.455	0.704161
45.4897	1.59706
45.9544	2.27786
45.9569	1.07621
46.1792	0.406666
46.2338	1.98809
46.2389	0.28986
46.2765	0.263655
46.4181	0.250849
46.6649	1.50434
46.8397	4.57198
47.5397	0.167034
47.8624	2.13207
48.1059	1.17317
48.6075	0.23142
48.6264	0.348892
49.3156	0.385242
50.0247	0.500462
50.0694	0.103655
50.625	0.144282
50.6299	0.0392984
50.9771	0.363909
51.1886	0.379053
51.4437	0.0865195
52.1998	0.394061
52.6192	1.22172
52.6263	0.120167
52.6659	0.413543
52.7124	3.75254
52.9649	4.48635
53.2108	0.558947
53.2244	0.671398
53.8788	0.895009
54.4146	0.522337
54.5313	0.190202
54.5347	6.99346
54.6001	0.705034
55.0094	1.08642
55.2632	1.18154
55.4222	0.745679
55.7291	0.236194
56.5913	0.00382152
57.8297	0.0471838
58.2081	4.22422
58.5944	0.988078
58.8109	17.2672
58.9996	0.307024
59.0502	17.3166
60.5499	17.0644
61.1587	2.23429
61.2175	15.8805
61.3203	0.406091
61.3931	0.26899
61.486	0.11651
61.7693	15.4826
61.8057	0.269637
61.9905	1.76869
62.1836	2.20878
62.3438	4.10725
62.353	0.526134
62.8155	0.35593
62.8641	2.0895
62.8739	0.599757
63.1849	0.909869
63.237	0.273974
63.3139	0.38778
63.3817	0.0699907
63.3894	0.851487
63.6107	14.3738
63.7732	0.644119
64.0801	0.15722
64.2912	0.0577969
64.5941	0.370668
64.7111	0.0620589
65.0454	2.65156
65.1405	0.231339
65.149	0.198447
65.1875	0.110365
65.2942	0.765123
65.3726	3.30334
65.4301	0.247438
65.599	0.39488
65.6053	0.00479707
65.6189	0.107335
65.663	0.164556
65.7321	0.181769
66.103	0.189395
66.4241	0.278681
66.4819	0.0698317
66.8677	0.264156
66.9239	0.127301
67.4229	0.140171
67.614	0.190163
67.8254	1.72051
67.8478	0.250709
67.8932	0.125438
68.0136	0.401694
69.0286	0.382097
69.3049	3.62891
69.362	0.934354
69.6001	0.158599
69.7069	3.36019
69.9954	3.4849
70.2243	0.154436
70.3338	0.321131
70.4279	0.239789
70.7216	3.26001
70.7672	0.302772
71.3822	3.24759
71.5018	3.22719
71.6897	1.29757
72.0088	0.0932106
72.123	0.00539007
72.1322	0.0956419
72.2304	0.385093
72.892	2.61173
72.9719	0.130832
73.0516	0.2265
73.0612	2.14561
73.3317	2.58952
73.6736	0.126766
74.0807	1.15707
74.9575	1.25168
75.0019	0.220016
75.0874	2.56902
75.1233	7.46635
75.2386	0.179906
75.3482	0.310729
75.5777	0.169559
75.862	2.5291
76.0146	6.88666
76.589	0.00113762
76.603	1.96087
76.6749	2.04479
76.7965	0.062391
76.9409	0.779812
77.0971	6.91693
77.1121	0.0704196
77.5492	2.01674
77.6114	0.25702
78.1133	0.0380334
78.1542	0.102299
78.1776	0.377277
78.2173	0.057721
78.3999	6.50255
78.5311	0.0607661
78.7422	0.0448377
79.0327	0.171643
79.192	0.564449
79.352	0.781135
79.7459	0.111348
79.7667	0.0430957
79.8525	0.0341141
80.0406	2.03187
80.3316	0.0161758
80.3741	1.30474
80.832	0.0488473
81.0947	0.022689
81.1106	0.174631
81.3163	0.301755
81.6029	0.0571002
81.8319	0.029245
81.975	0.170695
82.215	0.0487143
82.2325	0.184117
82.2725	0.0452352
82.2982	0.251382
82.4024	0.581209
82.4726	0.0778036
82.6855	0.112214
82.7789	0.0716715
82.898	0.0707152
82.9959	0.27269
83.0252	0.263445
83.0539	0.25265
83.07	0.0881794
83.1446	0.217933
83.4083	0.126949
83.4545	0.277775
83.5901	0.312604
83.7452	0.0547341
83.8086	0.0206248
83.8784	0.134056
84.0012	0.0987881
84.0066	0.150528
84.2655	0.375604
84.4964	0.764856
84.563	0.631244
84.7283	0.634013
84.8548	0.0612414
84.8629	0.103258
84.9319	0.00608644
85.2102	0.0746373
85.2939	0.078369
85.42	0.672541
85.4373	0.296481
85.4981	0.14519
85.5482	0.11343
85.5537	1.39857
85.5931	0.374196
85.9351	4.42983
85.9945	0.0981946
86.0636	0.204699
86.067	0.123443
86.2027	1.59585
86.3475	0.0852709
86.359	0.0324586
86.7562	0.138632
86.8782	0.0164698
86.9001	0.153246
87.0134	0.156565
87.22	0.108573
88.0542	0.0497535
88.1358	0.0550056
88.3778	0.103543
88.4259	0.227785
89.0821	0.802031
89.2816	0.115903
89.3273	0.25577
89.4406	0.100855
89.4922	0.200052
89.6064	0.175709
89.6456	0.111419