File: xy_files/MgMn4(FeO6)2.xy
# 2-theta (degrees)	Intensity
8.7208	0.655468
20.0752	0.25179
20.1113	0.40781
21.8577	0.219404
21.9896	0.166448
22.0754	0.134166
26.5771	0.434364
26.678	0.0313588
26.8568	0.0456117
33.1436	0.378691
33.2711	0.290646
33.4982	0.516535
35.1495	0.0623447
35.2139	7.53507
36.1878	5.9125
36.276	5.91191
36.4211	8.36108
39.321	1.72894
39.5043	2.11257
39.7549	2.48982
40.7863	0.22984
40.8532	0.0370842
40.8885	0.0670609
41.172	0.117387
41.3275	0.206312
41.7466	0.00184174
41.8795	0.15246
42.0129	0.00805717
44.2487	2.20715
44.4918	6.44513
44.5657	0.231069
44.6859	0.15336
44.7983	1.59438
44.8658	0.220482
48.9506	0.25491
49.1249	0.115539
49.2799	0.130663
49.4326	0.086902
49.5833	0.0717033
49.6538	0.29794
50.4103	0.403711
50.7273	0.617835
51.1236	0.481528
54.2817	0.450234
54.8701	0.032294
54.9464	0.00746331
54.9581	0.146052
55.3442	0.120226
55.6029	0.0740865
55.6592	0.0448523
55.7156	0.0420934
55.7394	0.0661817
55.7757	0.0377599
55.9337	0.0255372
55.9782	0.0115922
57.7522	0.0813571
57.902	0.0759309
58.0298	0.086956
58.0934	0.0302368
58.164	0.0731716
58.1686	0.03129
58.3337	0.074751
58.3991	0.0907572
58.4711	0.123188
58.5085	0.090563
58.6366	0.027408
61.6025	0.0822678
61.6515	0.023739
61.7365	0.044103
61.8237	0.00854341
61.9127	0.140334
62.024	0.0011415
62.3075	0.0225135
62.3738	0.0906022
62.4045	0.0535728
63.0518	4.08523
63.1767	0.0190087
63.7681	4.00611
63.8748	0.00983551
64.0649	3.60882
65.8173	0.0244443
65.891	0.388013
65.9501	1.9507
66.1994	0.0143205
66.3625	0.161276
66.6317	0.0171436
66.6982	0.142
66.7923	0.106051
66.9351	0.0586385
67.1554	0.066351
67.4913	0.13033
67.6172	0.0836654
67.7926	0.118921
67.9743	0.204768
68.3004	0.272281
69.2575	1.07432
69.4556	1.15029
69.7615	0.0934326
69.8357	1.02484
70.1103	1.03638
70.3902	0.0317985
72.8682	0.0589893
72.9371	0.0384708
73.2476	0.12754
73.5055	0.13138
73.9105	0.0571297
74.0041	0.0565838
74.0704	0.0539709
74.2737	0.0434156
74.3496	0.746664
74.7489	0.323639
74.8933	0.102513
74.9664	1.09882
74.9963	0.103582
75.0273	0.0965504
75.1793	0.121212
75.419	1.09331
75.9562	0.297951
76.8004	0.970085
77.0145	0.996622
77.3672	1.00099
77.8647	0.0118093
77.933	0.0216279
78.0216	0.0116815
78.1518	0.126004
78.3489	0.112849
78.4494	0.00794771
78.5101	0.0204156
78.5747	0.00563877
78.5966	0.00648636
78.6679	0.0647395
78.6909	0.010499
78.7709	0.0963726
78.8772	0.0734796
79.3356	0.0342938
79.7027	0.130935
80.0407	0.123407
80.177	0.0960315
80.32	0.0727528
80.3311	0.066555
80.371	0.00469773
80.4401	0.00262565
80.4525	0.00174183
80.5073	0.00788431
80.6718	0.0214822
80.7014	0.0497899
80.8306	0.00188637
80.926	0.0738465
80.9288	0.218113
80.9968	0.0376796
81.0594	0.043386
81.3394	0.220109
81.4787	0.0829695
81.6403	0.0649856
83.5767	0.00560545
83.7422	0.0046511
83.8676	0.00752791
84.0774	0.012951
84.3728	0.00172656
84.5536	0.0307511
84.7208	0.934489
85.0488	0.903631
85.1263	0.983136
85.5799	0.335427
85.7521	0.921165
86.1072	0.101859
87.1915	0.062044
87.5989	0.0503347
88.1083	0.0292486
88.3123	0.0433745
88.3371	0.058405
88.4022	0.0145988
88.5358	0.0172189
88.6283	0.0121418
88.7595	0.0320734
88.792	0.0628605
88.8685	0.0325852
88.9662	0.00492803
89.0551	0.0262475
89.1191	0.0070057
89.1632	0.005539
89.3126	0.0265271
89.3517	0.00490751
89.4165	0.0822626
89.4503	0.0170552
89.6183	0.0541018
89.67	0.0696973
89.7829	0.0152577