File: xy_files/MgMn2(FeO4)2.xy
# 2-theta (degrees)	Intensity
15.588	2.44511
17.8714	4.02354
18.3572	3.60447
23.799	6.60813
24.1706	100.0
25.1485	1.62642
26.2971	1.06729
29.7235	57.0509
30.714	48.025
31.4742	0.721775
36.1971	24.7735
36.4262	50.7314
36.6798	2.26569
37.2079	11.6432
39.6273	0.141793
40.1106	2.68724
40.5653	0.148948
40.7044	20.6251
40.8089	0.169616
41.463	5.67954
41.6342	9.37838
42.3117	0.350064
43.2793	13.6299
43.9362	0.508266
44.7146	12.5042
45.355	1.39442
48.0125	0.282897
48.7104	0.273434
49.5096	0.3705
51.6227	24.2385
51.6315	0.128939
51.8239	16.4861
51.8533	1.12129
52.4272	41.6455
53.1103	0.907869
53.6747	40.4968
54.1238	20.5095
54.2637	0.64854
54.9579	3.39919
55.5471	0.118681
55.5645	5.84828
56.6841	0.10586
57.1799	0.245708
58.0657	0.213699
58.137	0.0348806
59.549	0.0713679
59.6539	2.78379
59.8816	0.172591
60.5865	9.14174
61.2688	0.0948086
61.5782	0.544055
61.7245	0.305508
61.9644	7.61101
62.2629	0.884705
62.2893	6.34885
63.6458	7.47626
63.9656	0.207377
64.2929	5.34421
64.7947	0.223299
65.2536	28.4961
65.3944	7.36043
65.7009	12.8798
65.8917	0.0413541
66.7416	0.608097
67.1528	0.083741
67.6189	0.128598
67.9698	1.05848
68.7002	0.157728
68.8622	0.210628
68.9196	0.396669
69.2271	0.286808
69.4213	0.313646
70.2258	4.26063
70.3622	0.0583458
70.5141	2.24746
71.162	0.212375
71.5359	1.10588
72.0607	0.886108
72.5849	0.19623
73.1536	0.485097
73.3747	3.56912
75.2261	0.169687
76.0455	3.70255
76.8224	0.204393
76.8229	3.07634
77.3796	4.56337
77.8206	2.53304
77.998	2.77165
78.6466	2.37084
78.786	0.861686
78.9783	0.0696249
79.1086	2.8966
79.2931	6.79925
79.8455	0.215039
79.8765	2.37246
79.8767	0.195675
80.1681	1.5426
80.3055	0.103571
80.8121	0.182837
80.8568	1.56119
80.927	1.66635
81.0871	0.0645306
81.3155	0.0730539
81.3922	1.62349
81.4309	0.0169583
81.5536	0.0827201
82.941	2.09631
83.1003	0.0239852
83.2146	0.496183
83.6788	1.36008
85.2189	0.0908618
85.3634	0.130787
85.3845	0.0161444
86.0676	0.0279268
86.6056	4.00384
86.7183	0.0394683
87.2861	0.233704
87.4745	3.83414
87.7844	0.0735611
88.1469	7.60555
88.1538	0.369061
88.1778	1.59607
88.3049	1.0757
88.4198	2.12546
88.7149	0.0661626
89.2811	0.152465
89.5527	4.36638
89.7111	0.0606858