File: xy_files/MgMn6O12.xy
# 2-theta (degrees)	Intensity
12.2381	0.450894
17.7159	0.755802
17.966	27.4389
18.5702	0.786912
18.9402	0.437318
21.1453	100.0
21.2624	0.94992
21.9093	0.25784
22.4277	51.5796
24.6185	7.83578
25.2357	0.849804
26.0604	0.231326
29.6982	43.9038
30.0222	0.267697
30.7878	0.00110545
30.9601	0.135568
31.234	1.79397
31.4179	1.55209
31.5164	1.51273
31.5663	46.6674
32.1927	1.53352
33.0114	1.70797
34.2996	1.09473
35.3395	0.176834
35.5832	1.54152
36.105	57.6438
36.2248	19.1094
36.3553	0.127801
36.3937	15.8187
36.6256	28.4521
37.2996	17.8735
37.3842	1.02377
37.6518	0.00288869
37.7639	0.857679
39.0481	1.00149
39.292	0.0179383
40.0567	33.0571
40.6083	0.695629
41.0371	0.192021
41.1536	4.7929
41.2623	0.908897
42.1129	0.199512
42.7554	10.4501
43.0571	3.10782
43.2307	0.890934
43.3047	0.00154555
44.1894	1.10294
45.777	0.879351
45.7774	4.53296
47.0415	0.0962754
47.2608	14.0182
47.8777	0.00436532
47.9928	0.598519
48.1693	0.136232
48.2354	0.0201695
48.3947	0.0168295
48.5092	0.852141
48.6989	0.102846
48.7362	0.161175
48.8603	5.98027
49.1414	0.529938
49.4533	0.0092391
49.5229	0.148418
49.6335	0.140535
49.7658	0.0761585
50.4757	0.476469
50.8136	0.660405
51.1776	0.259509
51.2916	47.7456
51.2917	17.3544
51.3574	0.246186
51.4865	0.0122108
51.9412	0.0996828
52.8246	0.736209
53.0987	31.747
53.2386	0.236733
53.324	0.0541796
53.6077	0.210141
53.8513	0.399849
54.2698	0.0102232
54.5008	1.63444
54.5019	0.0686478
54.8539	0.0643291
54.8641	19.5767
55.0267	0.627244
55.1778	0.735213
55.2059	0.628768
55.6394	0.552434
55.864	0.0627716
56.1721	0.626999
56.2979	0.4165
56.5717	1.98507
56.746	0.222742
56.875	18.4982
57.0272	0.498916
57.0474	0.184487
57.1279	4.15517
57.7322	0.0165914
57.8993	0.448294
58.2661	0.786495
58.4331	0.0636438
58.8423	17.7657
58.9102	0.227672
59.1548	0.50197
59.8843	0.0978134
59.9184	2.83104
60.3185	2.79434
60.3464	0.198858
60.5259	0.203269
60.8798	0.159067
61.1147	0.108263
61.6673	0.687473
61.8083	0.0745381
61.9763	0.440025
62.1899	0.272408
62.6153	0.079467
63.4653	0.139992
63.5549	4.49015
64.1335	17.4724
64.4129	0.672624
64.8908	0.157247
64.9812	0.208425
65.1164	6.83603
65.2929	0.243851
65.4434	0.320884
65.4981	1.29499
65.5719	0.00219625
65.9009	15.6074
65.912	0.757223
66.1785	3.35818
66.4465	0.0422768
66.4909	24.1953
66.7438	0.0600849
66.7954	1.65329
67.1832	0.362667
67.2	1.04312
67.2095	0.0991684
67.3472	0.00116692
67.3519	0.0550212
67.6813	0.00112962
67.7806	0.0320617
67.8109	0.0489925
68.0327	0.09153
68.3434	0.580011
68.3495	5.81335
68.3569	1.59995
68.4412	0.750634
68.4519	0.0642942
68.4786	0.140854
68.5424	0.0218075
68.755	4.78331
68.8606	3.33575
68.9448	0.563681
69.1098	0.337356
69.2368	0.692451
69.4877	1.35821
69.5137	0.185998
69.7952	0.606464
69.8	0.11337
69.8154	0.147678
69.9648	0.030367
70.2371	0.515995
70.2478	0.121442
70.6435	1.44946
70.7194	0.58961
71.3819	0.0549857
71.4526	0.0573721
71.5413	0.0374325
71.6134	0.0210343
71.8534	0.169654
71.9801	1.81213
72.06	0.0469076
72.204	0.33782
72.2464	5.43963
72.6136	0.0444839
72.8712	0.517406
73.2432	6.48975
73.8368	0.695251
73.944	0.0176501
74.1563	0.0926022
74.5445	0.168788
74.8063	0.0197104
74.8251	0.394134
75.1795	0.0543029
75.233	0.0904192
75.3014	0.0377561
75.6713	0.377206
75.6762	3.05454
75.697	0.215297
75.7257	0.122637
76.0405	4.18289
76.0407	3.50855
76.4367	0.048189
76.5997	4.54663
76.8903	0.0707749
77.2977	0.0467176
77.3005	3.10798
77.6592	1.17826
77.8657	0.0246718
77.8678	0.160009
78.0802	0.395479
78.1833	0.0529903
78.352	0.038665
78.3931	0.0546287
78.7288	0.0691228
78.7371	0.442128
79.1006	0.249755
79.3121	1.94813
79.3575	0.0644189
79.5189	1.84806
79.6011	0.840355
79.7674	0.00103899
80.1164	0.445935
80.1811	2.00642
80.3895	0.685356
80.4171	1.78374
80.6675	0.107742
80.9051	1.8777
81.1923	0.114378
81.5049	0.343775
81.5499	0.0382196
81.6205	1.42107
81.7314	0.152414
81.8084	0.101934
81.8912	0.0494808
81.9548	0.18773
82.1768	0.0967683
82.3152	1.1009
82.3355	0.0553577
82.9908	0.0600384
83.1469	0.21699
83.5128	0.0349845
83.7866	0.179221
83.8581	0.024014
84.1256	0.0461795
84.2452	0.00760186
84.2582	0.215148
84.3621	2.76499
84.5076	0.0587687
84.7089	0.0401122
84.9986	0.196229
85.0467	0.0570878
85.0899	0.24284
85.1248	0.0370267
85.3234	0.778287
85.5606	0.227142
85.7363	0.0477915
85.832	0.161388
85.8341	0.236932
86.2643	2.67965
86.2778	0.794629
86.3629	0.0895731
86.4451	0.150648
86.4665	6.5593
86.619	0.0561022
86.7744	0.222914
86.7845	0.0492191
86.8277	2.12301
86.9765	0.00101334
86.9794	3.30857
87.2297	0.250337
87.677	0.408734
87.7084	0.132155
87.8107	0.180482
87.8963	2.50582
87.9239	0.00655707
88.298	0.0827428
88.6381	0.135049
88.7227	0.910498
88.8399	0.0256355
89.0763	0.643362
89.2747	0.301378
89.3159	0.00382279
89.3242	7.93955
89.4574	0.0457932
89.5813	0.337361
89.6044	0.0265714
89.6587	0.0262752
89.8363	4.70548
89.9613	0.0476316