File: xy_files/MgMn5O8.xy
# 2-theta (degrees)	Intensity
16.3877	42.7337
16.3954	18.3863
17.0325	78.8685
17.3407	18.7676
22.0224	92.039
22.8109	4.13326
23.6663	9.02146
24.2345	44.7808
25.7353	34.9101
25.8961	7.27016
28.2024	13.7997
29.3444	1.12728
29.3576	12.7325
31.6838	68.5992
31.7389	16.7347
33.1232	22.8988
33.139	20.7267
33.3619	41.0741
34.4566	36.3545
34.8445	19.0209
35.0875	23.7191
35.0953	37.9226
35.2106	26.9591
36.5055	5.49764
36.6762	34.3837
36.7449	10.9985
37.1992	17.0429
37.2575	100.0
38.0131	7.20504
38.5964	4.74752
39.33	0.965938
40.0201	69.0359
40.8081	0.617385
41.2244	3.73707
41.2931	2.43444
42.4118	0.751529
43.1359	1.0803
43.7819	7.10034
43.7912	2.60399
44.9154	4.21317
44.9316	1.65212
45.0905	2.6059
45.1891	5.86641
45.7438	6.4592
45.8705	5.01802
45.8855	0.715602
46.0878	0.0459291
46.5946	83.2684
46.674	2.60939
47.8095	2.38091
47.8686	1.61425
47.9926	2.95814
48.14	16.4649
48.4253	18.3372
48.7554	1.47166
49.2195	6.18367
49.5874	3.87836
49.6472	11.6542
50.0994	4.51741
50.6267	0.830798
50.6519	6.14823
50.9163	0.955133
51.0781	0.71155
51.4491	28.5742
52.0106	0.0570889
52.7532	0.419394
52.8978	9.8771
53.2128	1.25073
53.2483	32.7386
53.3691	4.56485
53.5145	11.2249
53.6226	2.34065
53.776	0.897778
53.8671	3.31061
54.1891	7.44737
54.3705	6.4445
54.5223	0.359829
54.9464	12.1892
56.1984	0.609114
56.312	3.92352
56.662	4.53279
57.0272	3.92615
57.45	1.48199
57.6372	1.43587
57.91	1.36763
58.231	2.36551
58.3227	21.3334
58.8281	2.65382
59.0841	0.885038
59.2711	0.510534
59.3404	6.89948
59.3538	0.56461
59.5275	31.6001
59.6166	0.166317
60.656	1.88042
60.6736	4.35622
60.6766	17.821
60.8722	6.81015
60.9018	17.7857
61.073	2.59248
61.177	1.7395
61.2216	13.1992
61.2413	0.904222
61.489	1.02486
61.7113	4.09398
62.3347	2.3853
62.3525	0.388785
62.6749	4.70611
62.6753	8.64585
62.7114	4.10053
62.9464	1.79213
63.2865	0.0854819
63.2929	2.02004
63.6503	1.12228
63.8726	5.61245
63.8865	2.13685
64.1984	9.19504
64.2707	7.41936
64.3321	1.84919
64.3489	0.622435
64.7324	14.3308
64.9961	2.06007
65.2456	5.61673
65.2863	0.0371191
65.385	2.32542
65.4043	12.4201
65.863	4.36849
65.9232	0.472769
66.1816	2.3478
66.3083	1.42251
66.5689	1.44611
66.7578	0.914761
66.8479	1.65758
66.8663	2.33535
67.0462	5.64415
67.5219	2.10421
67.7827	4.20761
68.0447	0.2161
68.6398	0.779748
68.7066	0.359735
69.0842	2.59284
69.0937	1.49804
69.1361	7.47914
69.5133	6.15606
69.5275	2.55509
69.5501	2.0772
69.5804	3.74421
69.6591	1.70925
69.868	0.285736
69.9196	0.0652388
70.0448	3.94354
70.0709	3.57799
70.2677	2.78395
71.4666	1.85447
71.7196	0.67642
71.8208	2.87291
72.6492	7.88778
72.712	1.43757
72.7764	0.142145
72.7893	2.89298
73.3338	0.440706
73.4639	1.06891
73.5712	7.0944
74.0137	0.0117134
74.1374	2.09533
74.1512	7.18902
74.1697	10.9101
74.4456	3.77071
74.5411	0.845147
74.8474	1.19614
74.8698	3.34134
75.3991	1.77874
75.691	1.60354
75.7022	3.18161
75.8142	0.954781
75.9309	1.02546
76.0345	1.03402
76.103	2.38728
76.4804	0.13801
76.8089	1.13697
76.9106	0.361668
77.0516	0.428072
77.1152	4.12564
77.4723	0.0498103
77.5729	0.844834
77.6091	0.388351
77.7559	1.69931
77.9733	3.98417
77.9892	2.87064
78.0617	2.42509
78.0628	2.17913
78.1572	2.38404
78.3864	0.265983
78.6716	0.846192
78.6978	0.394616
78.744	0.968187
78.8203	3.43614
79.1343	0.649456
79.2717	2.90251
79.342	0.978867
79.3666	2.91554
79.4153	2.60901
79.5557	0.402621
79.5884	0.233011
79.6415	0.696865
79.6473	0.228007
79.6766	0.117309
79.8428	0.898776
80.2561	0.260689
80.2915	0.578135
80.4501	4.8156
80.5987	0.53158
80.6172	0.936582
80.8153	0.553024
80.8481	0.695142
80.8792	0.223629
80.8899	0.909695
81.2523	0.452402
81.2872	7.30651
81.4344	0.358545
82.1102	0.12516
82.2548	0.632307
82.3235	0.833462
82.4276	0.491683
82.4821	0.268379
82.5343	0.654436
82.5481	2.18312
82.5579	0.471588
82.6406	0.137918
82.7477	1.00261
83.2404	1.99225
83.2773	0.370576
83.6654	0.815358
83.7992	0.220777
83.8154	0.713885
83.841	1.79185
84.003	0.0145738
84.3586	2.31344
84.4747	1.689
84.585	0.366917
84.6044	1.61627
84.6313	0.415363
84.6963	1.99889
84.8945	1.47452
84.9785	1.19286
85.0233	1.9595
85.2791	1.10234
85.2986	1.08006
85.3291	2.16494
85.4745	0.24281
85.6329	5.36193
85.7088	0.748398
86.2959	0.447685
86.3004	2.98188
86.3721	4.69101
86.3757	0.940383
86.5776	0.139468
86.7923	0.385712
87.1547	0.692782
87.2706	0.0808938
87.3797	0.785722
88.0383	0.275907
88.4178	2.19676
88.5493	0.392582
88.698	2.07178
88.7178	2.50209
88.7492	0.473808
88.878	0.315046
89.1099	1.39216
89.163	0.316617
89.3554	1.62794
89.5109	2.08474
89.6117	0.495416
89.692	1.4388
89.7434	0.168619
89.9641	0.432212