File: xy_files/MgMn4O6.xy
# 2-theta (degrees)	Intensity
17.276	2.2684
19.8095	40.568
19.8668	41.368
20.3249	36.1885
21.7989	7.39242
22.67	5.3814
22.6759	5.36694
29.6945	7.32467
29.7682	6.97402
31.0459	9.57031
33.444	100
33.475	91.9863
33.5185	97.0092
34.002	98.4919
34.9612	6.05265
35.4437	72.0203
35.4693	70.4202
37.0463	12.0957
37.1429	12.5178
37.8788	10.9459
37.9346	10.1138
38.6962	9.96637
38.7346	9.63921
38.9607	1.98568
39.4442	1.00422
39.5125	0.861254
40.2443	1.43933
40.3643	1.43964
41.327	1.62836
44.441	3.03316
45.065	0.0161409
45.1408	0.0654578
46.2938	2.36145
46.3064	2.16726
46.7219	0.19588
47.806	29.0603
47.9077	30.2844
48.3851	41.1711
48.5346	41.0964
49.136	28.8758
49.2266	28.3003
50.2594	0.355124
50.4844	23.8732
50.4933	23.865
50.6467	35.6711
51.9433	0.922868
51.9839	1.11234
52.2106	0.960985
52.3637	0.913378
52.4527	1.10279
52.5261	1.37282
52.8788	1.52346
52.9081	0.978729
52.9576	1.47865
53.0082	0.764599
53.561	6.64601
53.7697	1.12835
53.7781	1.03422
54.1378	1.43365
54.2448	1.34619
55.9348	0.103692
56.6705	1.18268
56.8562	1.01851
57.4816	1.56893
57.6116	2.01376
58.6754	0.634882
58.7048	0.710665
59.0908	0.76776
59.144	1.01243
59.1722	16.6023
59.2852	16.1121
59.7751	38.6552
59.8584	41.2902
59.9177	38.4018
61.1055	17.8607
61.1564	17.6116
61.6592	0.586017
61.6796	0.134089
61.8252	0.436144
62.0511	16.1659
62.1105	16.4071
62.1331	0.212644
62.3306	0.0981876
62.941	5.1465
63.0187	3.37736
63.0449	6.07752
63.0982	3.07161
63.3113	0.0790841
63.3918	0.0918592
63.9188	0.00467224
64.5965	4.08612
64.7103	3.21816
64.7216	0.313859
64.9065	4.46954
66.2933	3.53465
66.3046	4.39451
66.6768	0.1815
66.8831	0.203085
67.9451	0.0292603
68.1188	0.0107895
68.938	8.41866
69.1185	1.25557
70.0493	1.73088
70.2632	10.0343
70.2897	1.80699
70.3358	12.0514
70.4378	10.3175
70.511	0.0637168
70.5412	0.0606017
70.6345	0.243268
70.7555	0.23197
70.8546	10.0642
70.9066	10.1848
71.5745	2.94234
71.9249	0.9261
72.1338	0.805891
72.2623	1.8788
72.2838	1.77249
73.0229	0.337379
73.0946	0.371999
73.3262	1.47311
73.426	0.24946
73.5262	0.499435
73.5296	0.930879
73.6356	1.05315
73.8494	5.47625
74.0379	1.35556
74.0435	0.573766
74.1281	1.32148
74.166	0.875333
74.1724	0.182329
74.1788	0.608232
74.3617	0.751186
74.4215	0.275786
74.5525	0.355165
74.7136	0.296106
74.8527	0.280099
74.8715	0.399893
75.0046	2.12609
75.0661	2.16171
75.6375	0.203944
75.7247	0.193356
76.7764	0.489697
76.8984	0.559652
78.7506	5.23991
78.8476	0.250978
78.8662	0.304564
78.8957	5.72787
78.9346	4.95737
79.133	5.3982
79.4712	0.74782
79.49	6.54836
79.6105	0.561859
79.7861	6.42928
80.3588	4.50088
80.5858	4.20899
80.9531	4.08512
81.0919	4.15293
81.2484	1.58195
81.4748	1.46632
81.475	1.68079
81.4923	0.636831
81.6031	0.587621
82.5475	4.26223
82.8322	1.55417
82.9238	1.88406
82.9714	4.96027
82.9991	4.79888
83.0393	4.84066
83.0957	4.6771
83.1119	1.58615
83.1379	1.94707
83.3274	1.06556
83.4837	0.465004
83.5711	1.1183
83.6217	0.538554
83.6348	0.48314
83.6669	0.0576582
83.7234	0.617347
84.1355	0.852638
84.8954	0.0899146
85.0696	0.0849581
85.1955	0.00169676
85.3319	0.0147854
85.543	0.644332
85.5705	0.688402
85.8468	0.16615
85.958	1.49601
85.989	1.47316
86.3682	1.15502
86.3796	1.32552
86.5316	5.21845
86.6632	5.3251
86.9511	0.379518
87.2621	0.393103
87.4799	1.51673
88.3833	4.2632
88.7115	0.0548099
88.7619	0.0275752
89.7815	0.42108
89.8638	0.0218348
89.8946	0.120827
89.9493	0.0227917