File: xy_files/MgMn3O7.xy
# 2-theta (degrees)	Intensity
17.0673	3.62241
18.3653	3.3053
18.4637	100.0
18.7004	1.44962
20.3618	0.356234
20.5774	0.651485
24.6872	11.9247
25.246	14.3261
25.4222	10.3322
26.1567	29.5849
30.1673	50.3829
30.5722	50.5942
31.8496	0.688299
31.9923	2.54168
32.4076	1.39608
32.8273	19.0949
33.5663	2.39252
34.1634	8.69161
34.5287	8.76698
35.9516	16.6507
36.8491	0.259229
37.2247	2.46226
37.4299	20.5405
37.9235	1.96939
38.4271	0.216082
38.4559	0.00886468
38.9383	7.26591
39.4331	3.43595
39.5517	0.910794
41.0467	10.1642
41.4046	0.415494
41.8265	1.25481
41.8587	1.1129
41.9983	1.78485
42.9083	0.0784498
43.2517	2.41665
43.5737	0.0495171
44.4814	2.20859
44.7541	9.61946
45.9721	1.04548
46.3902	2.9473
46.7777	1.67874
47.1213	1.12683
47.6794	4.1944
47.7813	0.0731472
48.0795	1.55978
48.3828	20.1942
49.0739	8.46074
49.3617	12.5216
50.3308	0.193769
50.6241	2.44435
50.7019	0.0353426
50.9732	0.48902
51.1102	0.00235954
51.1456	0.00700578
51.2885	0.0307694
51.4355	1.72202
51.8342	1.19281
51.9161	0.406723
52.2168	28.7698
52.8685	1.7616
53.5362	1.32317
53.817	0.109254
53.8985	1.1755
54.2828	3.37163
54.6754	0.116466
54.6888	8.92529
55.3187	0.122137
56.4824	0.00628327
56.484	0.587283
56.5744	0.424939
56.7474	1.62669
56.9631	2.15821
57.207	7.8526
57.3664	0.00708639
57.5395	0.232018
57.6346	1.95163
58.0799	5.47335
58.284	0.0516089
58.3403	1.18523
58.7448	6.24664
58.7626	1.35764
59.0785	0.762915
59.097	1.82501
59.1864	1.56338
59.4976	0.688288
60.2118	2.02739
60.4832	2.49493
60.6509	0.79859
60.936	2.21155
61.2601	1.23725
61.3846	0.0505144
61.6702	1.86415
62.4711	0.11258
62.7259	4.9925
63.0793	16.1253
63.1493	0.295569
63.3049	1.09596
63.6435	0.212721
64.0472	0.188866
64.228	0.159725
64.4635	0.0779231
64.7997	2.24576
64.9265	0.480116
65.1278	4.62603
65.1972	0.793736
65.6028	0.540989
65.8553	1.11328
65.9379	0.739177
66.5628	1.18862
66.5651	0.474691
66.8912	0.442501
66.9987	3.647
67.8504	0.00459435
68.3387	11.7841
68.5298	4.02917
68.7088	0.0171726
68.8241	1.60365
68.8653	0.163225
68.9514	1.12313
69.0336	1.49783
69.3549	0.120873
69.5912	1.5008
69.6127	6.84646
69.9752	1.67291
70.2842	0.214619
70.3848	2.36826
70.5498	2.19435
70.7616	0.00469996
70.8444	0.205294
71.3993	0.654309
71.4284	0.567099
71.5067	0.789108
71.7012	0.18594
71.9554	2.21887
72.0636	0.0896405
72.2554	0.809751
72.2825	0.433644
72.6176	0.191745
72.8202	2.23872
73.2643	0.161449
73.4137	0.625764
73.8628	1.83418
74.0421	2.81968
74.5904	0.0135913
74.8425	2.98646
75.011	1.03369
75.2492	2.21391
75.5445	0.0468685
75.5609	0.0573459
75.5654	0.0144894
75.7938	1.93321
75.8835	1.1358
75.9163	0.444167
75.9612	0.185685
75.9954	0.0966105
76.2284	0.481043
76.6163	0.338679
76.6787	0.0158256
77.1999	1.68355
77.2979	0.624336
77.6025	1.37378
77.8385	0.00818972
77.8934	0.258484
78.2307	0.0970242
78.3827	0.0683303
78.4122	0.47049
78.5378	0.342235
78.88	0.0664982
79.3345	0.00308875
79.3385	0.0412777
79.781	0.940531
79.8405	0.559999
80.0839	1.94603
80.4213	0.60302
80.4626	0.147055
80.4808	0.0654108
80.8195	0.137789
81.0641	0.628114
81.1793	0.00102793
81.7021	0.267875
81.7894	0.382462
81.9311	0.601491
81.9737	0.0286406
82.1566	0.113499
82.2021	0.0806479
82.3223	1.15064
82.3355	2.12163
82.3947	1.17111
82.616	0.268683
82.7929	0.769503
82.9457	0.175586
82.9791	0.97229
83.6103	0.0328547
83.6477	0.141524
84.1583	1.88221
84.191	1.69871
84.2354	1.68921
84.3258	0.00346747
84.5531	0.960223
84.6968	1.24211
84.867	1.1078
84.9317	2.18482
85.1698	0.0649089
85.5078	0.10138
85.5666	0.706746
85.8069	0.482242
86.0288	0.779546
86.0848	0.145457
86.748	0.256375
86.7759	0.0288938
86.8235	0.0809721
86.89	0.244464
87.1492	1.802
87.1601	0.20929
87.494	0.137986
87.7357	0.776139
87.7972	1.30461
87.858	0.00669733
88.0222	0.731902
88.076	0.136139
88.3669	0.065398
88.8621	0.011894
89.0371	0.443499
89.0433	0.216671
89.4204	0.0345235
89.6742	0.681278
89.9281	0.469261
89.9868	0.140934