File: xy_files/MgO.xy
# 2-theta (degrees)	Intensity
10.5659	100.0
18.353	9.41436
21.2229	4.05025
28.1988	16.7058
32.0697	1.12238
35.5551	5.79172
37.1993	10.9583
38.7777	0.166184
43.1995	14.392
43.2211	5.34412
44.6006	4.52159
44.6163	1.03505
47.304	1.25359
47.3241	0.555287
48.6121	0.720631
49.9137	17.9952
52.3897	4.8304
52.4037	0.206798
54.8039	0.406104
54.8174	0.00420439
54.8219	4.38306
57.1658	3.8887
58.2973	4.93371
58.3147	0.360499
59.4323	0.0769253
61.6805	0.798283
62.7618	2.97854
62.7743	0.716656
65.9944	0.352395
66.0066	0.0277974
67.0696	0.522642
68.1045	12.1641
68.1204	0.399667
70.1995	1.6449
72.2362	3.3427
72.2478	0.881017
74.2461	1.28074
74.2653	3.12423
74.2806	0.222408
75.2721	0.292026
78.2663	0.706653
78.2776	0.786507
79.2718	0.417223
80.2253	0.261457
80.259	0.307631
83.1895	0.516861
83.2043	0.382305
84.1669	0.404361
84.178	0.0459545
86.0984	0.0677331
86.1169	1.71862
87.1012	1.06122
88.0772	1.04016