File: xy_files/Mn(FeO2)2.xy
# 2-theta (degrees)	Intensity
17.8601	42.318
17.9265	45.8631
17.9329	41.0868
18.0052	33.8289
20.5745	0.081327
20.6765	0.00126308
29.3271	50.286
29.3348	49.2384
29.433	50.1262
29.514	50.2969
29.6223	48.4094
29.687	48.4086
34.4489	85.9967
34.4816	100.0
34.5674	88.3085
34.5792	96.2178
34.61	80.5471
34.6153	86.7875
34.687	77.5755
34.7329	89.3043
34.8762	78.7303
34.9864	82.5677
34.9967	82.3889
35.1099	89.8362
36.1736	27.139
36.3117	23.3592
36.325	26.3304
36.4753	23.6925
41.8525	80.9952
42.0675	79.4891
42.6418	75.7602
45.8825	0.735284
45.9598	0.435816
45.9681	0.110625
46.0689	0.0416099
46.1353	0.752949
46.1582	0.157296
46.2513	0.0664516
46.3372	0.407792
46.4202	0.292335
46.4296	0.120913
46.5206	0.389706
47.1157	0.0255603
47.1255	0.00444494
47.126	0.0908657
47.2627	0.0453806
47.273	0.0146395
47.3797	0.0584595
47.5641	0.0377737
47.6663	0.00136646
47.7255	0.00150119
47.956	0.0356536
51.9271	8.36312
52.026	7.6784
52.069	7.49024
52.1543	7.84648
52.1777	7.87512
52.2719	7.94443
52.2758	8.72427
52.3747	7.93242
52.4032	7.77803
52.5854	8.27536
52.6052	7.87282
52.8247	7.28784
55.2576	30.2333
55.2779	30.8129
55.3937	30.6411
55.4254	24.4621
55.5092	12.4337
55.5245	32.2335
55.5471	28.9303
55.6482	26.8063
55.6822	26.5699
55.7318	13.1802
55.7533	12.4033
55.9957	15.3275
56.1671	27.4404
56.2944	28.0565
56.3063	28.8185
56.4356	26.7775
60.8333	80.8244
60.8506	81.0768
61.071	78.9836
61.2532	78.1833
61.4966	78.6921
61.6422	78.1235
63.8096	1.78849
63.8652	0.414842
63.8899	0.616611
63.9238	0.739708
63.956	0.619409
63.9719	0.87038
64.0108	0.968049
64.0341	1.63265
64.075	0.923108
64.143	0.596426
64.1685	0.471864
64.2155	0.696866
64.2737	1.3392
64.35	0.965244
64.4547	1.23749
64.4932	0.695088
64.5453	1.36216
64.5699	1.03558
64.576	1.60275
64.6713	0.990206
64.7894	0.00840683
64.8388	0.883047
64.8964	0.435573
64.9057	0.00129462
64.9598	0.685877
65.0283	1.12639
65.0776	0.0900798
65.095	0.0117578
65.1187	0.0341993
65.1465	0.0072509
65.2462	0.0305133
65.2986	0.072311
65.2998	0.0484742
65.4433	0.0489989
65.5212	0.00797188
65.6137	0.0933761
65.717	0.0465647
65.8267	0.0232772
66.1022	0.0134538
68.7591	2.58082
68.7994	2.54015
68.8115	3.40173
69.0591	3.21135
69.1076	3.10935
69.1185	2.49491
69.1197	2.75531
69.3925	3.12268
69.8935	2.88202
69.9444	2.78283
70.1913	2.62196
70.217	2.61408
71.8014	9.26275
71.959	7.7923
71.9888	7.46189
72.1545	8.69099
72.1648	9.38622
72.2807	9.83738
72.289	10.3496
72.3712	9.69672
72.5158	8.12569
72.6161	8.64394
72.6309	4.6833
72.647	9.04927
72.7086	5.78071
72.9122	4.47911
72.9402	5.0749
72.9912	7.4971
73.0133	5.27748
73.026	4.83558
73.1963	5.31544
73.3056	4.77372
73.6468	4.88412
73.9097	5.26026
73.9343	4.83646
74.2048	4.58838
76.7658	8.15334
77.1012	8.29834
77.1335	8.28518
77.4992	8.54014
79.1887	0.124134
79.2037	0.133308
79.3482	0.160682
79.3971	1.33209
79.4817	1.42717
79.4918	0.966578
79.6243	0.75823
79.6335	0.161928
79.6505	0.118708
79.7404	0.816722
79.8092	0.106006
79.8441	1.67037
79.9795	1.23986
80.0931	1.11509
80.2994	0.0133077
80.3224	0.00667974
80.3277	1.18061
80.4194	0.0388774
80.4408	0.855461
80.5046	0.00167897
80.5165	1.1369
80.6395	0.864651
80.7375	0.0451571
80.7713	0.00126517
80.888	0.0181993
80.902	0.0366464
80.9867	0.00646801
81.0543	0.127706
81.0915	0.00682071
81.2902	0.00402715
81.6577	0.00209885
81.7791	0.00421664
83.9187	2.55143
84.0641	1.83984
84.0678	1.97269
84.1034	2.23187
84.1774	2.04352
84.2245	2.16978
84.2683	2.30852
84.3383	1.99353
84.369	2.05752
84.3719	1.79142
84.5451	1.988
84.5485	1.9148
84.6153	2.24719
84.6858	1.89342
84.7982	1.88593
84.806	2.19592
84.8724	1.75459
84.9356	2.26196
85.0711	2.29461
85.0794	2.0091
85.2403	2.08956
85.3129	1.69356
85.5049	2.00457
85.6012	2.2214
86.617	4.929
86.6406	3.37924
86.6613	3.56416
86.6981	3.90039
86.7607	3.70642
86.8068	5.4009
86.8447	3.22364
86.9809	4.56886
87.0312	4.13432
87.0727	7.30505
87.0903	3.87133
87.1041	6.84962
87.1108	3.60241
87.1245	4.67278
87.1336	6.34385
87.1538	3.26311
87.1953	3.23288
87.2007	2.94624
87.2266	6.52183
87.3793	6.16843
87.4779	7.68216
87.5327	3.66202
87.5627	6.81749
87.6094	4.19517
87.6424	5.82591
87.7469	7.07198
87.9241	3.35654
87.9771	7.14984
88.0099	3.53246
88.0709	3.82917
88.1111	5.89394
88.1704	3.61123
88.4114	3.87925
88.4557	3.44152
88.5638	3.24947
88.6219	3.77581