File: xy_files/Mn13Fe3O32.xy
# 2-theta (degrees)	Intensity
11.9604	0.00129557
15.0293	0.0017064
18.3553	53.2716
18.5628	50.0508
18.5683	100.0
21.4055	0.00498721
21.4115	0.0102144
24.5511	0.00128166
28.7387	0.0020513
28.8741	0.00248483
29.0437	0.00137008
30.3252	0.00765379
30.3278	0.0146178
30.5871	0.0638542
30.5983	0.0327243
32.3498	0.00403096
32.7721	0.00307026
32.8631	0.00403179
34.0691	0.00135309
34.254	0.00363799
35.6776	6.01255
35.6822	11.8627
35.9054	12.1104
35.9069	12.0173
35.9159	11.9733
36.0143	5.19625
36.0277	10.4933
36.0306	0.00130284
36.4264	0.00102353
37.204	4.96249
37.6365	4.56908
37.648	9.14958
38.9677	0.00576184
39.2801	0.00208679
39.6017	0.00104981
39.6976	0.0014476
40.3877	0.00292388
40.6487	0.00250497
40.7917	0.00100903
42.3467	0.00232914
42.7113	0.00209225
43.6073	33.4761
43.62	66.8419
44.6501	0.00259976
45.1256	0.00204964
45.1269	0.00131079
45.5671	0.00161937
46.2002	0.00289483
47.4203	1.80337
47.4214	3.65751
47.6874	1.25681
47.6957	2.47852
47.9546	3.35075
47.9617	3.36082
47.9747	3.32209
48.2887	0.00107652
48.9011	0.00295918
48.9035	0.00273931
48.9099	0.00315202
49.249	0.00466752
49.2577	0.00386448
49.2699	0.00407848
50.4706	0.00218615
50.9165	0.00153979
51.2001	0.00229006
51.8498	0.00230813
53.1416	0.00137238
54.2034	0.014514
54.2082	0.0152388
54.2207	0.014899
55.0984	0.00234373
55.5777	0.00110896
55.6923	0.00140556
56.4318	0.0020432
56.434	0.0014376
56.7797	0.0010771
57.1734	0.340035
57.4835	2.72445
57.495	5.408
57.7191	4.87691
57.7285	4.90886
57.7388	4.89501
57.8723	2.47344
57.8744	0.605234
57.8931	1.21327
57.8941	4.9764
57.9638	0.00102366
59.5167	0.00156422
60.2924	0.00162097
61.9979	0.00120426
63.0834	8.68579
63.0892	17.3575
63.6772	17.2713
63.7027	8.60996
66.2355	2.27382
66.2384	2.28914
66.2432	2.31038
66.5253	2.34532
66.5281	2.31981
66.5396	2.35641
66.8858	2.25437
66.8877	2.22568
66.9116	2.23702
66.9515	2.26027
66.9687	2.27674
66.983	2.26515
67.1511	0.0209546
67.1516	0.0396293
67.7204	0.022253
67.736	0.0449565
68.0046	0.0132523
68.0197	0.0134402
68.0344	0.0140095
71.7229	0.01061
71.7327	0.0105846
71.7415	0.00997424
72.1376	0.0123791
72.1561	0.0130689
72.1695	0.0131562
72.6297	0.0012175
73.2722	0.00127431
73.5091	0.00117445
74.3581	0.652858
74.3618	1.32808
75.179	1.23849
75.1917	1.22604
75.2063	1.24428
75.3792	0.550517
75.4101	1.0853
75.5672	1.02123
75.5781	2.04411
76.1166	1.89147
76.1203	1.89208
76.142	1.89676
76.3799	0.911307
76.4125	1.8286
79.2833	3.75788
80.3515	3.81363
80.38	7.60706
82.504	1.00044
82.5084	2.01257
82.8299	0.316862
82.8353	0.863315
82.8485	1.71256
82.8512	0.619809
83.0965	0.643217
83.116	0.634245
83.1284	0.631532
83.2932	0.240682
83.3269	0.489418
83.5015	1.75836
83.5103	1.75798
83.5413	1.76056
84.8361	0.00109294
85.6984	0.00103683
87.3152	0.00223038
87.3188	0.00213029
87.3227	0.00265736
87.9765	0.00795687
87.9869	0.00779143
88.0015	0.00780167
88.3748	0.00370283
88.3814	0.00429611
88.4131	0.00392655
88.4988	0.00655795
88.5274	0.00743234
88.5445	0.0070567
89.6797	0.00104538