File: xy_files/Mn17Fe13O40.xy
# 2-theta (degrees)	Intensity
12.3636	0.0168986
15.5163	0.0975622
16.5099	0.0096975
17.6789	36.7927
20.3529	0.00212072
20.6165	0.0406666
21.7764	0.0476229
23.5126	0.149607
23.805	0.0327013
26.89	0.0873966
28.8034	53.6524
29.0867	0.0328639
29.2031	51.3205
30.0148	0.0541257
30.7358	0.00111599
31.4829	0.00156722
32.2584	0.0126535
32.3948	0.217408
32.7812	0.401335
32.9737	0.507671
33.3946	0.0551581
33.9203	93.1522
34.0795	89.7881
34.5795	98.1809
35.4953	0.0125251
35.6349	0.0285299
35.7405	25.253
37.2888	0.0519868
37.5056	0.00347991
37.695	0.00158533
38.4373	0.00304262
38.5567	0.0306229
39.7166	0.0291648
39.9063	0.00606946
41.2281	0.0199796
41.5059	0.00900044
41.9411	0.0342594
42.3186	0.0514398
42.5501	0.00535239
42.6513	0.0320549
43.0145	0.0310573
43.2248	0.0163406
43.8009	0.0191414
44.2958	0.0449662
44.6972	0.0202226
45.1237	0.0432829
45.4443	0.0548721
45.65	0.0342343
46.2047	0.022929
46.3498	0.00318728
46.4082	0.00642785
46.5405	0.00538516
46.6979	0.00386872
46.8928	0.117027
47.0447	0.110819
47.2051	0.0667306
47.7792	0.0131974
47.9951	0.00339963
48.0736	0.0476372
48.2304	0.0504488
48.655	0.111996
48.7908	0.12004
49.3414	0.0313247
49.9106	0.0152869
51.058	8.81027
51.1622	0.00225391
51.2878	9.10336
51.4204	0.0276791
51.9284	7.94625
52.0898	0.00271689
52.2461	0.026018
52.3903	0.0793721
53.1019	0.0240594
53.2537	0.0262521
53.4012	0.0214632
53.4533	0.00118213
53.512	0.167194
53.8425	0.124713
54.1604	33.1474
54.4811	34.2032
54.6059	29.5476
55.3002	0.00767176
55.3926	0.00184362
55.497	0.00328726
55.5593	0.0120182
55.6255	0.0220868
55.6778	0.102783
55.7853	0.00131853
55.9549	0.0545852
56.8064	0.00480189
57.0205	0.0224098
57.2657	0.0177135
58.0918	0.00969675
58.3307	0.00417817
58.5799	0.0100665
59.5495	87.0714
59.6892	0.013278
59.8151	0.0016445
59.9069	0.00757307
60.0535	0.00544056
60.3239	0.0077283
60.4013	0.0166212
60.686	0.00503016
60.9651	0.00988313
61.1974	0.0137719
61.4058	0.0123746
61.6239	0.120546
61.8389	0.0459284
61.9715	0.160193
62.1705	0.00448009
62.4385	1.37199
62.6509	0.718174
62.8334	1.2765
63.0298	1.4093
63.4367	1.19785
63.5728	0.00827305
63.6224	0.00890544
63.7855	0.770607
63.8283	0.0447952
63.845	0.695213
63.8959	0.0519784
63.9878	0.0184367
64.0701	0.0469842
64.1809	0.00344406
64.3762	0.0154644
64.5681	0.00142089
64.7214	0.00732901
64.9364	0.0102475
65.2883	0.00637918
65.6186	0.0964816
65.7248	0.0769075
66.2759	0.0199111
66.552	0.0203462
67.2375	0.00429301
67.3413	0.040837
67.4551	0.0027319
67.526	0.0355249
67.6388	0.0114344
67.7055	0.0183327
67.7672	0.0279636
67.8088	0.00405275
67.8511	0.0197564
67.9785	0.00437956
68.0187	0.00396606
68.1669	0.00959692
68.3828	0.0164258
68.4228	0.00414943
68.5614	0.00218084
68.6546	0.00231539
68.8091	0.00348951
69.038	0.00436302
69.1976	0.0016823
69.6194	0.00429833
69.803	0.00370645
70.1131	0.0135036
70.3358	0.0245743
70.7552	10.1797
70.9865	9.56315
71.1489	0.0233469
71.3557	9.48426
71.4353	0.00278044
71.4958	0.00934313
71.624	0.0577109
71.7478	0.0124293
71.9554	0.0189435
72.4058	0.00256761
72.7191	0.00702021
72.7993	0.00488697
73.0316	0.0999046
73.2508	0.0168061
73.3563	0.0241701
73.7492	0.0122394
74.1553	0.00268624
74.704	0.00381243
74.9801	0.00117304
75.1233	0.0225126
75.2089	0.00534871
75.3295	0.00352505
75.4138	0.0311994
75.5031	0.00502777
75.7186	8.58911
75.8552	8.62629
76.1373	0.0063395
76.5471	0.0869684
76.7244	0.00216524
76.7882	0.0789292
76.9162	0.0124849
77.0292	0.0114872
77.1261	0.00837776
77.2276	0.0407987
77.4018	0.0214615
77.5184	0.013414
77.5997	1.496
77.827	1.19931
78.1042	0.0398471
78.3018	0.00979436
78.5421	0.00652125
78.6158	0.00107087
78.7399	0.00883266
78.7784	0.967947
78.8206	1.03523
78.9325	0.0170667
78.979	0.00614723
79.0474	0.00242264
79.1458	0.0460298
79.2657	0.00217908
79.3228	0.0339372
79.4314	0.00504604
79.5922	0.024386
79.6542	0.0515897
79.6879	0.00585529
79.8841	0.00749656
79.9316	0.0243706
79.9715	0.0151758
80.2644	0.00535031
80.4966	0.00180144
80.9537	0.00629164
81.2125	0.0106685
81.4137	0.02984
81.5486	0.00474167
81.8703	0.00109056
82.0332	0.00897535
82.2449	0.0156113
82.348	0.021141
82.3977	0.00297696
82.4564	0.0620544
82.5278	0.00184434
82.6129	0.00753626
82.6856	0.00473745
82.8572	0.0115717
82.9735	2.28396
83.2465	2.42069
83.3606	2.2837
83.5998	0.00185224
83.7444	0.00854049
83.863	0.00170112
83.9689	0.00813809
84.1642	0.0201212
84.1961	0.00895454
84.3424	0.00745362
84.5608	0.00169887
84.6964	4.26427
84.8684	0.00501624
85.0202	0.00991231
85.1449	4.12632
85.2685	6.70364
85.3486	7.02154
85.4282	3.83895
85.5919	0.0126747
85.6872	4.27323
85.8336	0.00274059
85.952	0.0372058
85.9852	0.0106705
86.0555	6.64418
86.1189	0.00466237
86.2645	0.00388
86.4489	3.64287
86.611	0.00460684
86.8523	0.014653
86.9035	3.22665
87.0263	0.0015498
87.1404	0.00215258
87.3447	0.0134834
87.5899	0.0013573
87.7787	0.00191646
87.9693	0.00571119
88.1904	0.0218275
88.3472	0.0041566
88.4649	0.0105627
88.8303	0.00648838
88.9742	0.00418032
89.1639	0.00186647
89.4571	0.0154267
89.5207	0.0187892
89.6659	0.0072085
89.7102	22.5878
89.9374	0.00794158
89.9447	0.00873735