File: xy_files/Mn19Fe17O48.xy
# 2-theta (degrees)	Intensity
2.93748	0.050134
11.7693	0.0094913
16.6753	0.282479
16.9308	0.15052
17.6852	0.0194385
18.8324	0.0330701
18.9069	0.00537381
20.4589	0.00904298
22.2497	0.0275043
22.3356	0.00697273
24.385	0.00769169
26.6062	0.0124729
26.6945	0.0630271
29.0455	54.7906
29.1137	54.0594
29.2089	0.00344299
29.7031	0.0205417
31.4048	0.00632531
31.5988	0.0374396
32.674	0.0744939
32.7762	0.00743917
33.7816	0.0843887
34.1554	0.0216266
34.1957	51.9349
34.2604	90.5342
34.2791	0.0184592
34.9045	0.0136225
35.7908	0.00514237
35.8489	26.0097
36.8488	0.00486723
36.9479	0.0226265
37.7458	0.0050442
38.9275	0.0150632
39.7462	0.00272292
39.7948	0.0158078
39.8959	0.0380162
41.4725	0.00664475
41.6433	0.0164916
42.0895	0.0036976
42.6448	0.0108125
43.4646	0.0086412
44.4034	0.0230843
45.1203	0.0592827
45.1863	0.00878317
45.3987	0.00127621
45.4685	0.588938
45.5117	0.068294
45.5792	0.189112
45.9977	0.00453165
46.0941	0.0351719
46.7181	0.00439661
46.8091	0.188801
46.8347	0.00164788
47.6743	0.0121071
47.7586	0.031656
48.4956	0.0195348
48.7377	0.0488365
49.3669	0.0235171
50.0197	0.0295046
50.123	0.00159907
51.4427	3.86185
51.5399	9.2138
51.5864	9.68021
51.6121	4.39424
51.8052	0.0111062
51.9673	0.0186958
52.28	0.0480789
52.4168	0.00531724
52.9246	0.0043033
53.0817	0.00397824
53.209	0.0255851
53.8638	0.0437933
54.6021	0.0352635
54.7045	0.0224354
54.7684	7.67772
54.893	16.7405
54.9508	7.59056
54.9865	15.2329
55.9476	0.0117989
56.7485	0.0245508
56.9092	0.0028278
57.4239	0.0269064
57.5021	0.0100332
57.5423	0.0479442
57.7705	0.00663888
57.8908	0.00511775
58.9146	0.0181674
58.9522	0.0303353
60.1464	43.4403
60.28	0.00710332
60.3591	43.8554
60.4461	0.0855767
60.6318	0.0282092
61.0042	0.00228149
61.0864	0.0177006
61.1284	0.037325
62.229	0.00366978
62.4399	0.060772
62.8916	0.00898254
62.9935	0.00167316
63.0859	0.0175168
63.1816	0.00298014
63.2227	1.3955
63.2661	0.574128
63.3468	0.0202815
63.4134	0.98946
63.4295	1.98742
63.6834	0.030346
63.8493	0.0155694
64.2809	0.0108415
64.3069	0.0168131
64.3858	0.0365251
64.4362	0.0113595
64.9322	0.0105502
65.1259	0.0247548
65.19	0.00726264
65.6909	0.0231337
65.8379	0.00852519
65.9502	0.00482157
66.0649	0.0080352
66.3955	0.00144968
66.5159	0.0239658
67.0969	0.00347886
67.1616	0.00196635
67.7275	0.00300944
68.1964	2.98005
68.3306	3.03032
68.3791	3.36908
68.4678	0.00549008
68.6732	0.00236319
68.8927	0.0119769
69.4637	0.00169623
69.6856	0.0215279
69.7674	0.0102316
70.7385	0.00504652
70.8044	0.00687553
70.9904	0.0132818
71.0299	0.0420601
71.1387	0.00206443
71.2351	10.396
71.2876	9.32013
71.6382	0.00148767
72.0317	2.78622
72.1847	4.55773
72.2288	0.0102078
72.6358	0.00605215
72.8912	0.0216971
72.9489	0.00648289
73.5034	0.0450242
73.7427	0.0209914
74.1599	0.0149965
74.5519	0.00545512
74.6871	0.00161941
74.7575	0.00163639
75.323	0.026029
75.84	0.00210011
75.9338	0.0054496
76.0825	0.0344696
76.2888	0.00687354
76.4886	0.00855644
76.7025	0.00426808
77.1678	0.00774974
78.2322	0.00441529
78.3172	0.00120207
78.3771	0.00690258
78.4328	0.00871512
78.4753	0.0102851
78.5334	0.892173
78.5632	0.0733582
78.6309	0.0414263
78.6541	0.0144573
78.7606	0.00240416
78.7853	0.776088
78.7874	0.00334565
78.9581	0.00670373
79.4147	0.0183475
79.5803	0.00789025
79.7013	0.00317352
79.7788	0.0144787
80.2058	0.0542922
80.3828	0.0228208
80.6405	0.00128599
80.9415	0.0762316
81.0566	0.0107185
81.455	0.0214624
81.8975	0.00539984
82.0033	0.00255819
82.0587	0.00362626
82.1773	0.00473526
82.2085	0.00237789
82.5975	0.00542622
82.8329	0.00149703
83.0252	2.72509
83.1254	0.00120985
83.2076	0.0157352
83.2923	2.15016
83.3342	2.24094
83.365	2.16752
83.4061	0.00227752
83.6287	0.00294178
83.7807	0.00364555
83.9389	0.00103464
84.0422	0.0125224
84.5284	0.00526615
84.6303	0.00140726
85.2045	0.0166517
85.7069	6.40995
85.7699	0.00343941
85.8135	0.0136586
85.8634	0.00897111
85.9293	0.00110651
85.9956	0.00176804
86.0308	4.03611
86.0589	0.0022289
86.0693	4.65368
86.0924	0.00447807
86.8536	0.00207609
86.9952	0.00669388
87.0674	0.00176648
87.5	0.00916285
87.646	0.00703021
87.997	0.00657416
88.1329	0.00699005
88.2798	0.0265071
88.8663	0.00279092
89.0934	0.00454545
89.2317	0.00105857
89.3239	0.00234756
89.409	0.00227012
89.4854	0.0116104
89.9575	0.0193102