File: xy_files/Mn23FeO32.xy
# 2-theta (degrees)	Intensity
8.80467	0.0529244
14.0982	0.0262599
15.88	0.057271
17.3977	0.00554522
17.6653	30.4519
21.221	0.011905
21.5363	0.00109824
21.9076	0.026708
23.7744	0.00798901
24.6363	0.052885
26.627	0.00338949
27.5955	0.0198699
28.4156	48.7916
28.905	0.0173391
30.1943	41.5577
30.3754	0.0239808
30.4504	0.00110045
30.6925	0.044255
31.5381	0.00125831
32.0698	97.9036
32.6797	0.0500915
33.8804	0.0812894
34.2902	0.0017357
35.1591	67.5703
35.206	69.5957
35.2322	69.8626
35.7617	18.1811
36.1987	0.00106168
37.2006	0.0201086
37.9041	94.4222
38.3191	0.00930764
38.3339	0.0100594
39.2785	0.00564639
39.4361	0.0160846
40.0071	0.00997749
40.6397	0.00367652
40.735	0.0104122
43.2024	0.00441196
43.2642	58.7122
43.4238	0.00203389
43.5919	0.0616024
43.6315	0.00173788
44.5573	0.148051
44.625	0.191496
44.6716	0.199085
45.161	0.00207443
45.2573	0.00355343
45.6771	0.0063292
46.013	0.00773143
46.2989	0.0027791
46.9209	0.00362156
46.9616	0.00467973
47.067	0.0401037
48.6507	0.00163297
48.6829	0.00353079
48.8425	0.00359848
48.9135	0.00266807
49.1354	8.48113
49.2222	0.021138
49.5848	0.00102135
50.4716	31.9201
51.1352	0.00263574
51.2535	0.01294
51.4386	0.00588951
51.5097	0.00755193
51.5453	0.00581868
52.5413	7.325
52.588	7.17126
52.9094	0.00344574
53.6308	0.062399
53.6794	0.00424576
53.9537	0.00543926
54.0013	0.00174159
54.5022	0.00931647
54.8577	12.1076
55.2638	0.00386905
55.3394	0.00327244
55.769	0.00494476
55.9836	0.0312084
56.333	0.00149364
56.8952	22.3687
56.9341	22.7174
56.984	22.78
58.3088	0.00588825
58.4057	0.00438701
58.552	0.00531062
58.587	0.0055527
58.7491	78.5952
58.8806	78.4021
59.419	0.0149202
59.8882	0.60745
59.9371	0.350256
60.0199	0.584878
60.0468	0.00338178
60.5299	0.0107038
60.5788	0.0282199
60.6572	0.0128962
60.8522	0.00550269
61.4016	0.00249606
62.7657	0.00221589
62.787	61.316
62.8215	3.83794
62.8362	0.00126096
63.1651	0.00659253
63.2813	0.025124
63.3446	0.0315666
63.5672	0.0013648
63.802	0.00544775
63.8839	0.79993
63.9235	0.754946
63.9704	0.733274
65.1243	0.00712547
65.2679	0.00119088
65.7969	0.557347
65.8311	0.535892
66.0796	0.0365548
66.1934	0.0651764
66.9815	4.04303
67.008	0.00617882
67.0835	4.23065
67.1521	0.00191718
67.1731	0.0129166
67.4082	0.0125191
67.4417	0.012699
67.6199	0.0120355
68.4247	0.00498807
68.5025	0.00233775
68.5522	0.0016922
68.6005	7.92957
68.6341	0.00127802
69.249	0.00479718
69.541	0.00404687
70.3312	0.00709296
70.4222	2.54011
71.2148	2.30861
71.288	0.167962
71.3424	0.0995257
71.5278	0.00351868
72.1981	8.04131
72.3021	7.74593
72.3299	7.66424
72.5217	0.00157993
72.6507	0.0142696
72.7664	0.00114737
73.3357	0.00114931
73.4147	0.0134592
73.623	0.00144535
74.3223	3.44885
74.4347	3.65365
74.4974	3.64838
75.2603	0.00421522
75.4376	0.00353901
75.6105	0.00321276
75.7698	7.20784
75.8463	7.23206
76.2142	0.00122089
76.5727	0.00841519
76.6157	0.824266
76.6763	0.808839
76.756	0.00282997
76.8421	0.874624
77.2559	0.00821767
77.4755	0.00434559
77.6211	0.00351416
78.6281	0.00570944
78.7063	0.0031768
79.2319	2.01196
79.299	4.44233
79.3305	2.19274
79.3563	4.13233
79.396	0.00703229
79.4325	4.38982
79.4631	0.00684852
79.484	0.00103985
79.5865	0.00349897
79.7255	0.00272025
81.0159	26.7327
81.1374	0.00288142
81.2907	0.0153669
81.5039	0.00223038
81.9695	0.00432621
82.0197	0.0136613
82.0649	0.023792
82.0889	0.0039337
82.2229	0.00304574
83.199	0.00312052
83.2499	0.00120764
83.3515	0.00391806
83.4162	0.00113269
83.5146	1.99613
83.5398	0.00364796
83.6734	1.93506
83.7612	1.98192
84.0665	0.00283102
84.2107	0.00608402
84.496	0.00371038
84.6357	0.00830588
84.6625	0.00835606
84.697	5.46677
85.0614	0.001362
85.2773	0.00242653
85.883	0.00133829
85.941	0.00136483
86.1678	1.70267
86.3002	1.70986
86.3241	1.70513
86.3397	1.66762
86.6283	0.00606341
87.1363	0.0136654
87.2212	0.00551344
87.257	0.00130266
87.3859	0.0015418
87.4525	0.00301238
87.763	0.00295332
87.798	0.0232829
87.922	0.00655586
88.0129	3.02662
88.1224	3.01289
88.1438	2.99326
88.1855	5.7767
88.5638	0.00143294
88.8441	1.50796
89.033	0.00379606
89.3241	0.00198512
89.3694	0.0050986
89.4585	0.00162964
89.7099	0.00171581
89.7997	0.00188942
89.8368	2.73261
89.8997	2.77619
89.9288	2.869