File: xy_files/Mn2FeO6.xy
# 2-theta (degrees)	Intensity
18.0637	100.0
19.997	0.00270085
22.0227	0.0126522
27.0735	0.00309915
34.0591	0.0253079
35.1431	5.98968
36.2488	26.0662
36.3516	1.80926
36.5969	3.29958
39.6918	7.27746
39.7869	13.7685
40.6377	0.0305012
40.762	0.0195638
42.05	0.0107067
44.8012	0.0220049
44.9162	0.00849181
44.9372	26.7052
45.0232	2.35894
50.8532	0.0163185
51.5649	1.2273
51.6425	10.8128
54.791	0.00533172
55.5769	0.00166312
55.6506	0.00356848
55.7733	0.00950665
56.192	0.90474
58.107	0.00996981
58.1786	0.00903211
58.2978	0.004365
59.2874	14.5662
59.3582	0.00444383
60.2562	0.0020728
62.2468	0.00720251
62.3613	0.00457906
62.7807	4.26435
63.7754	14.3056
65.9139	4.44478
67.6371	0.00166011
67.7029	0.00622208
67.8124	0.00107861
67.9639	0.263767
68.0295	4.33599
69.921	4.20074
70.3919	0.00475951
74.0312	1.3543
74.2841	0.694431
74.5294	0.0013176
74.7642	0.218914
74.9153	0.937929
75.0162	0.113599
76.9485	3.46703
77.1981	1.73383
77.5841	4.70416
77.6464	0.24316
77.7956	1.16475
78.2545	0.00133659
78.4201	0.00129313
80.4099	0.00384291
80.5482	0.46814
80.5743	0.00151477
80.7948	0.243215
81.5952	1.09321
82.2973	0.00126825
82.3586	0.00407885
83.9734	0.00707095
84.2791	0.00158906
85.5285	4.16181
85.7724	2.03131
87.9729	0.00163207
88.2707	0.376994
88.3315	1.28926
88.9264	0.00160897
89.2088	0.555639
89.2306	0.00191881