File: xy_files/Mn2FeO4.xy
# 2-theta (degrees)	Intensity
17.8378	21.9425
28.538	25.6564
28.6623	25.3065
30.7442	21.3403
31.9585	100.0
35.6666	68.0188
35.8701	67.7292
36.1272	16.842
37.5324	22.7303
43.8635	13.0986
44.2058	12.8336
44.8522	0.088495
45.0207	0.111546
47.8678	0.0180815
49.2721	9.57505
50.1006	32.5527
53.2407	7.5797
53.4631	7.46113
55.4345	12.734
57.7634	21.2003
58.1844	20.5141
59.0692	39.4187
59.3463	38.8662
59.8717	0.40079
60.0092	0.421828
62.3209	2.11897
62.3881	2.12501
63.691	0.0132646
63.8899	0.0117385
64.0343	29.3765
64.5374	0.573511
64.9321	0.541503
66.8133	3.96085
66.9312	0.39949
67.1896	0.360555
67.2889	0.0229958
68.8779	8.21875
70.6733	0.0654412
71.3077	1.37442
71.872	1.34802
72.4557	1.25856
72.9541	1.23199
73.2413	7.62823
73.4897	7.41218
75.5405	3.14454
76.0314	3.04728
76.6534	6.54058
77.1188	0.639107
77.4847	0.618326
78.9625	4.57746
79.0837	4.59727
79.3696	2.30927
79.5511	2.30448
80.0938	7.06311
83.4018	0.00739576
83.761	0.550854
84.12	0.0122568
84.5802	2.01688
85.0581	1.98865
85.3338	5.76647
85.5725	5.6401
87.1414	0.0110021
87.8609	1.77712
88.1585	1.75535
88.1952	1.70009
89.3462	3.19381
89.7032	5.51076