File: xy_files/Mn2O3.xy
# 2-theta (degrees)	Intensity
18.4419	0.323281
18.4864	0.28832
20.6513	0.0165268
22.6464	5.49891
22.6738	5.21077
26.2278	0.0379858
27.827	0.0223451
27.8496	0.31724
30.8348	0.00223016
33.5849	0.00708022
33.6392	0.00241745
34.902	0.304631
34.9204	0.160004
34.9477	0.309359
37.3951	5.78775
38.5855	0.014595
38.605	0.0215952
38.6332	0.00985142
39.7508	0.513295
39.8333	0.543803
40.9356	0.02352
42.0029	0.192199
42.0239	0.166461
42.0798	0.170057
43.0959	0.0144006
43.1643	0.00671107
44.1732	3.28622
44.1984	3.2203
46.2502	0.507459
47.2409	0.168637
48.2358	2.15128
48.2693	2.31273
48.3023	2.07583
49.2231	0.00229356
51.144	0.0152634
51.1523	0.00967255
51.1702	0.013255
51.2342	0.00516177
52.0772	0.632377
52.0906	0.396179
52.1736	0.619865
53.9724	13.713
54.8201	0.0143461
54.8375	0.0252115
54.8847	0.117935
55.7493	0.663433
56.5975	0.0170121
56.6274	0.00990109
56.6987	0.0125535
57.483	0.154606
57.5345	0.074716
57.616	0.127741
58.4834	0.00569525
59.2151	0.337338
59.2226	0.0949799
59.2431	0.294888
59.3011	0.130846
60.8945	0.134642
60.9092	0.369438
61.0376	0.105972
61.7371	0.00416912
61.7477	0.00283119
61.7993	0.0171333
61.8311	0.0289302
61.8768	0.00245018
62.5785	1.36367
62.638	1.0897
62.6696	1.41975
63.4914	0.00991475
64.2406	7.34069
65.0457	0.00120456
65.058	0.00160642
65.0963	0.0097321
65.8398	0.906112
65.8671	1.11098
65.9712	0.848151
67.5026	3.44412
68.2649	0.0325759
68.3671	0.0140986
69.0598	0.204806
69.0831	0.122793
69.1171	0.194801
69.809	0.00218368
69.8989	0.00148448
69.9888	0.00245465
70.602	0.549248
70.6617	0.0689822
70.7277	0.525458
71.4004	0.0238709
71.4988	0.005004
71.5467	0.0298295
72.1545	0.0651099
72.1647	0.0467208
72.1764	0.171121
72.2334	0.0600962
72.2762	0.172384
72.3221	0.0883892
73.7083	0.087848
73.7523	0.421091
73.8172	0.0735063
74.4786	0.00107147
74.5416	0.00872016
75.9727	0.00817613
75.9984	0.00557909
76.0182	0.00247652
76.0663	0.00216575
77.4918	0.0147871
77.5242	0.012066
77.5671	0.00452761
77.6133	0.004071
78.2433	0.186108
78.2478	0.287006
78.2639	0.0700589
78.3197	0.295661
78.3593	0.186032
78.4072	0.0194387
79.7284	1.16392
79.9572	1.16662
80.4816	0.00518868
80.5012	0.0934461
80.5521	0.0149966
80.579	0.00775072
80.6499	0.00262496
81.2242	0.806206
81.2437	0.199916
81.2776	0.200516
81.2971	0.155996
81.3194	0.0622505
81.4012	0.210902
82.0157	0.00107587
82.7077	0.452472
82.732	0.206137
82.7693	0.126647
82.8402	0.117027
82.9347	0.188712
83.4811	0.00337115
83.6222	0.00885132
84.2289	0.451804
84.2791	0.394731
84.318	0.439202
85.6785	0.0113498
85.7039	0.474366
85.8056	0.0158736
86.4194	0.00262317
86.5288	0.0183406
86.6307	0.0280512
87.1675	0.197459
87.1764	0.188297
87.1957	0.17983
87.2143	0.145305
87.3173	0.186847
87.3673	0.194819
87.963	0.00322997
88.0475	0.0052181
88.639	1.86514
88.7517	1.89305
89.3795	0.00865936
89.4126	0.00171684
89.4487	0.0017765
89.5731	0.00338882
89.5751	0.0215441