File: xy_files/Mn3FeO8.xy
# 2-theta (degrees)	Intensity
18.4686	0.00193624
18.7609	100.0
21.4421	0.0135545
30.3218	0.011841
30.6895	0.00346013
35.7375	35.4669
35.897	0.0147496
36.2141	0.0247467
37.44	6.57162
38.0498	3.00301
43.6849	49.9056
47.5533	0.0514219
47.9316	9.12561
48.3076	0.00921763
48.9138	0.0108346
49.4072	0.00571373
53.8706	0.00216917
54.1014	0.0126833
54.7897	0.00552134
57.5557	0.0240846
58.107	15.016
58.5456	1.06534
63.0757	14.5072
63.91	11.3763
66.4417	14.3571
67.3548	0.00218982
67.4431	0.00118187
67.8467	0.00591841
68.6506	0.00291539
71.7744	0.00143746
74.6619	3.50156
74.952	0.00408313
75.7115	1.14829
76.0964	2.83167
76.8643	1.96699
79.8653	6.22645
81.3788	1.36329
82.6623	0.00372226
82.9445	1.79082
83.2265	0.00334198
83.6023	0.00343702
84.0716	5.23728
87.5686	0.00138587
88.3157	0.00270214
89.2491	0.00109593