File: xy_files/Mn3Fe5O12.xy
# 2-theta (degrees)	Intensity
12.9446	0.0215697
13.1364	6.51812
18.5809	0.181966
22.5499	0.265253
22.7484	5.37687
22.8179	0.0450449
22.912	0.0341564
26.2798	0.0142238
26.461	0.0226905
29.3105	0.637327
29.5542	0.691091
29.5808	3.26891
29.6826	0.0120631
32.5052	0.141948
34.7058	1.22515
34.8289	0.442418
34.9849	0.0499295
35.0373	0.0120438
35.1241	0.551918
35.1779	0.0426748
35.2647	0.0895934
35.3141	0.426276
37.717	3.90995
39.5476	0.396485
39.8604	0.183067
39.9214	0.296039
40.0613	0.140699
40.1387	0.379381
40.1999	0.00445679
41.9691	7.43766
42.2659	0.291899
42.3084	0.0490367
42.4974	0.0519183
44.1008	0.00345926
44.2919	0.544717
44.5603	0.0109451
46.0003	0.0057093
46.3138	0.70083
46.4824	0.221697
46.7078	0.0902338
47.9181	0.0454774
48.0523	0.00287414
48.1153	0.13099
48.2591	0.0274785
48.4217	0.0117617
48.4675	0.540417
48.5823	0.215489
48.6289	0.18448
48.6408	1.01025
48.6554	0.443815
48.763	0.479769
48.814	0.112889
51.8773	0.0611877
52.1499	0.426828
52.2755	0.448706
52.3815	0.00306312
52.4765	0.265351
52.545	0.416627
52.6565	0.410895
53.6018	7.1185
54.2836	6.51211
55.2993	0.0366679
55.6024	0.668062
55.7266	0.0817003
55.8398	0.202534
56.0938	0.427018
56.1523	0.00373248
56.2627	0.509501
56.3378	0.230833
57.2007	4.27817
57.4407	0.0354388
57.7638	1.21749
57.9459	0.592897
58.0351	2.63516
58.8405	0.00418663
58.9034	0.110916
59.0965	0.0145807
59.2223	0.100382
59.4437	0.33962
59.4837	0.150867
59.5752	0.324601
59.6793	0.602156
59.7316	0.0622491
59.7922	0.293993
59.8652	0.0861925
59.9743	0.0698849
60.7963	0.0497944
61.3434	0.0520921
61.4032	0.130528
61.6324	0.112124
62.2926	0.182028
62.5764	0.240929
62.7874	0.265085
62.9169	0.260126
63.0682	0.276871
63.1201	0.273381
63.2899	0.383914
63.3439	0.303936
64.3351	0.0358943
64.4805	0.00402516
64.7788	0.696876
65.3485	0.0705
65.6722	0.301702
65.9362	0.0210492
66.2125	0.359315
66.2567	0.220673
66.3383	0.137464
66.444	0.0656805
66.6205	0.0389606
67.3237	1.1138
68.2463	0.57759
68.6992	0.0069627
68.8276	0.0025072
68.9252	0.0888319
69.0477	0.0532463
69.1707	0.0527523
69.2668	0.00163565
69.5267	0.0703677
69.6005	0.109441
69.661	0.0466982
69.6819	0.0550882
69.7485	0.071695
69.7654	0.026293
69.8958	0.0623701
70.0564	0.23056
70.665	0.0124836
71.1093	0.00998761
71.3329	0.395871
71.6635	0.109488
71.7615	0.00269
71.8366	0.0424254
72.1494	0.0357278
72.2963	0.167518
72.3447	0.16763
72.4073	0.125963
72.5891	0.0265975
72.687	0.0442282
72.7247	0.127724
72.8019	0.118389
72.8525	0.0542184
72.911	0.0182355
72.9839	0.00294045
73.014	0.00813805
73.1459	0.00124913
73.4716	0.0241408
73.5734	0.0913064
73.9907	0.1289
74.114	0.130947
74.2512	0.0299839
74.3868	0.633671
74.5753	0.011298
74.6777	0.184881
75.1363	0.0625472
75.7993	0.0961936
75.977	0.104525
77.6884	0.035211
77.8405	0.0986411
77.8921	0.0753741
78.2903	0.111803
78.4752	0.035811
78.5182	0.11415
78.6297	0.0328281
78.6835	0.0804507
78.7245	0.128627
78.7874	0.0871916
78.9473	0.0572221
78.9823	0.0161824
79.0818	0.0552529
79.1857	0.0468361
79.2232	0.105114
79.2961	0.0401225
80.4447	1.0368
80.5998	0.0510951
81.0559	0.129051
81.1143	0.0322329
81.1794	0.048057
81.3675	0.057173
81.687	0.0667469
81.7272	0.0109322
81.8264	0.0616544
81.9312	0.127444
81.9835	0.0869211
82.0294	0.105465
82.068	0.0528357
82.109	0.184886
82.2402	0.126956
82.3125	0.0474107
82.379	0.050666
82.5126	0.906377
82.8267	0.779349
83.0422	0.196759
83.4959	0.0591853
83.5198	0.17211
83.638	0.398772
83.7577	0.127706
83.8582	0.0858316
84.0091	0.0278804
84.3405	0.0384458
84.5909	0.141761
84.8867	0.0285691
85.0771	0.165164
85.1303	0.0135761
85.1836	0.0778965
85.364	0.0825926
85.891	0.0108712
85.9984	0.00194865
86.4545	0.0254668
86.5154	0.509083
86.6733	0.0371695
86.7242	0.0170816
86.8329	0.036956
87.0194	0.0836357
87.2164	0.0395877
87.281	0.00158989
87.4958	0.0651713
87.6068	0.0189952
87.672	0.0223122
87.7839	0.0743213
87.8414	0.00571395
87.8814	0.0503264
87.9564	0.0523422
88.0255	0.0351511
88.0799	0.0735199
88.1849	0.045201
88.2405	0.121128
88.32	0.0260075
88.4444	0.069153
88.7367	0.195918
89.3084	0.0489099
89.4734	0.0258447
89.7385	0.0176907
89.8802	0.0912973
89.9649	0.0420993