File: xy_files/Mn4FeO5.xy
# 2-theta (degrees)	Intensity
8.00789	1.54182
16.0552	0.185436
24.1832	0.00511231
28.4233	0.0320383
30.6887	0.00721261
32.4369	0.385491
34.8201	91.7575
40.2009	100.0
40.32	0.284643
40.8677	46.662
41.0589	0.128708
43.5493	0.0583951
46.809	0.0231906
47.4661	0.00110351
49.5367	0.312554
52.5717	0.31766
54.0611	0.00351862
58.1585	29.091
58.5203	0.0407858
58.6672	55.4843
58.8138	0.0406055
60.7535	0.0197321
61.9716	0.122539
65.6225	0.473695
65.9818	0.00627113
67.1994	0.0015015
67.9182	0.00103751
68.1885	0.125931
69.6032	24.0278
70.5251	11.2949
73.1412	0.100203
73.3824	0.074163
73.5132	25.6681
77.7601	0.0122658
77.8682	0.122965
79.783	0.171025
79.8322	0.250488
81.9686	0.00205729
83.4256	0.00136642
86.8389	8.04158
87.1473	0.0446865
87.3983	0.0118638
88.5737	3.58458
89.0753	0.00612113
89.8936	0.0128586