File: xy_files/Mn5(FeO3)4.xy
# 2-theta (degrees)	Intensity
6.78899	0.712224
14.8764	0.491612
17.6532	48.0882
17.7872	35.2364
20.5866	0.00629359
21.6443	0.0882863
22.3829	0.340005
24.6265	0.026046
24.8554	0.0202585
28.0286	0.0505058
29.059	54.992
29.1532	51.7701
29.913	0.031164
32.1968	0.0571053
32.4194	0.200069
32.8603	0.0478155
32.9876	0.0267436
34.1664	92.7018
34.3117	85.08
34.3209	84.171
34.3837	91.3973
34.4413	0.151708
34.5337	91.1152
35.8718	24.5694
36.9397	0.224729
37.0707	0.17858
37.3022	0.0192535
40.3011	0.108598
40.4471	0.0692895
40.7515	0.0427666
40.8215	0.0696628
40.9038	0.0178998
40.9817	0.0230469
41.6191	82.2424
42.2114	0.00956189
42.5378	0.00371009
44.1133	0.0957171
44.5317	0.0488869
45.428	0.928699
45.5409	0.0752409
45.5966	0.00143538
45.7063	0.253805
45.8807	0.0821303
45.9207	0.0754234
46.7621	0.00270677
46.8687	0.0548184
46.9952	0.0082005
47.3277	0.0289355
47.4771	0.101432
47.607	0.00625875
47.7065	0.0658346
47.8818	0.15524
48.0256	0.22389
49.0283	0.00305398
49.1069	0.0308221
49.3427	0.0226176
50.6272	0.0312255
50.834	0.118233
50.9811	0.0186871
51.0838	0.0736995
51.2796	0.0130471
51.4728	8.29003
51.6643	8.77912
51.7307	8.59941
51.943	8.32869
53.5529	0.0257681
53.9629	0.0493259
54.0387	0.0424991
54.3198	0.0154995
54.8514	31.3519
54.943	0.00934358
55.0198	0.0881351
55.0324	29.1671
55.1005	28.3116
55.1764	0.154478
55.2357	30.3469
55.2715	0.00309937
55.4916	0.0436817
56.7415	0.0408317
56.8272	0.106827
56.9463	0.0126857
57.0387	0.0234767
57.2555	0.0601143
57.4004	0.00969002
58.1717	0.0614765
59.273	0.0206118
59.536	0.0831117
59.7678	0.0508565
59.8151	0.0143258
59.8823	0.0538556
60.2325	82.6695
60.2744	0.0377216
60.6093	82.4472
60.8037	83.3225
60.9665	0.0465355
61.1019	0.146433
62.3733	0.00968919
62.5122	0.00895362
62.6314	0.0310886
62.6996	0.0402745
62.9011	0.0364104
63.2609	0.602944
63.3956	0.945921
63.4327	0.948549
63.5199	0.9139
63.5654	0.667922
63.7063	0.62341
63.7769	1.03723
63.9659	1.03882
64.3403	0.0933422
64.4196	0.0472125
64.5865	0.05825
64.7755	0.00127257
64.8427	0.00213225
64.8856	0.0585528
65.0934	0.0215705
65.2067	0.0758209
65.3435	0.0642676
65.4391	0.0493384
65.5749	0.00165962
66.0798	0.0442514
66.2781	0.0642653
66.7305	0.0117049
67.6729	0.0145486
67.8212	0.0178446
67.8906	0.0467517
68.0175	0.0621754
68.1953	2.82118
68.3035	2.99008
68.4011	0.00445678
68.429	3.31195
68.5964	3.44045
68.8265	2.80734
68.9035	0.041618
69.1972	0.0099677
69.8325	0.00794789
70.0321	0.0593324
70.1681	0.0633905
70.2087	0.00326103
70.2587	0.028175
70.3339	0.0126997
70.4245	0.00604729
70.5709	0.00414975
70.6582	0.00636152
70.9799	8.74812
71.1716	0.0238921
71.3541	9.58597
71.4608	0.0247872
71.5063	9.36971
71.7453	0.00824909
71.7988	8.63102
72.0697	5.67996
72.314	4.52343
72.3921	4.6008
72.4822	5.65831
72.7288	0.018108
72.813	0.0513729
72.9349	0.019625
73.1403	0.0151189
74.9608	0.051471
75.2025	0.0247936
75.239	0.0195198
75.297	0.0321306
75.5473	0.00163737
75.7439	0.0124958
75.8444	0.0250311
76.103	0.048084
76.2947	0.00631596
76.3908	0.0192776
76.5184	0.0136442
76.902	0.00165485
77.7174	0.0034162
77.8948	0.0157068
77.9464	0.0309312
78.0479	0.0174592
78.2415	0.0239276
78.3273	0.00111713
78.3806	0.0454298
78.5191	0.0321028
78.5931	0.067053
78.6717	0.18941
78.7777	0.133216
78.8154	0.001557
78.8267	0.00503627
78.9427	0.0635759
79.0065	0.887797
79.1226	0.0319987
79.354	0.0436706
79.4083	0.10289
79.5405	0.00766213
79.6676	0.00331067
79.8112	0.0477994
80.0794	0.00343288
80.2029	0.0162547
80.275	0.00934087
80.3634	0.0171219
80.3991	0.00758216
80.4346	0.0121807
80.4616	0.00162954
80.6419	0.0247766
80.7081	0.00429303
80.8546	0.0178426
81.0048	0.0305215
81.2391	0.0052081
81.4197	0.0220863
81.6258	0.0098777
81.775	0.00848142
82.7318	0.00190899
82.9197	0.0878637
83.0367	0.0158203
83.1232	0.0121207
83.2114	0.0110494
83.3252	2.15522
83.4195	2.38641
83.5406	1.83389
83.5728	2.19584
83.6668	1.94086
83.837	2.1594
84.0608	2.09007
84.8032	0.00469564
84.8983	0.0618705
85.0056	0.0490129
85.1652	0.0594775
85.2232	0.00987007
85.4361	0.00415305
85.5722	0.0048479
85.7068	0.00660252
85.7763	7.64512
85.8509	3.94012
85.9341	0.023732
85.9752	3.86655
86.0582	6.77588
86.1195	0.010232
86.1819	4.19879
86.245	3.79923
86.2817	3.77577
86.3473	3.7734
86.4404	0.00883864
86.507	7.26763
86.5945	3.59902
86.7551	4.09204
86.9063	3.78244
87.2176	0.00107737
87.5309	0.0339192
87.7999	0.039746
87.8341	0.019477
87.9278	0.00498147
88.274	0.0484525
88.4264	0.0499237
88.6503	0.0174085
88.8725	0.0249915
89.8467	0.0036592
89.9382	0.0176104