File: xy_files/Mn5FeO12.xy
# 2-theta (degrees)	Intensity
15.502	0.00295341
15.5639	0.00118846
18.4551	100.0
18.6116	95.9563
21.4335	0.00369288
22.5356	0.00106638
22.708	0.00228264
25.8202	0.00146512
28.6826	0.0205283
29.491	0.00193355
30.2944	0.0100949
30.4786	0.0396194
30.5062	0.0377611
30.6865	0.0300098
31.2972	0.00566561
31.4247	0.00132728
33.6896	0.00147738
34.3805	0.00710846
34.4615	0.0210047
35.7677	11.3608
35.8156	11.5175
35.879	10.6595
35.9638	11.281
36.0222	10.6788
36.0698	10.627
36.0859	0.00837427
37.412	9.18301
37.7383	8.73422
38.7514	0.00435251
39.0356	0.00578609
42.1069	0.00647428
42.5991	0.00453977
42.6126	0.0138125
42.6936	0.00295907
42.9358	0.00646912
42.9619	0.00942377
43.622	31.8899
43.6667	31.78
43.7032	31.7436
46.3749	0.0028442
46.6022	0.0011658
46.6707	0.0200732
47.5099	2.86639
47.6949	3.22805
47.7213	0.00365708
47.7328	3.27996
47.8964	2.73034
47.9341	2.7162
48.1141	3.13737
48.1679	0.00298109
49.0993	0.00280612
49.1735	0.00342269
49.6834	0.00189471
49.7703	0.00222441
49.9655	0.00138271
50.3245	0.00760011
51.2878	0.00111406
51.627	0.00364459
52.7819	0.00680013
53.0827	0.00804496
53.156	0.0164877
53.2995	0.0110862
53.4452	0.00265366
53.5948	0.0109185
53.9172	0.00366375
53.9692	0.00429892
54.3141	0.0132496
54.408	0.00469458
54.4597	0.00443636
56.7295	0.00337601
57.5104	0.860319
57.5768	5.01235
57.6091	0.0053779
57.6764	4.98972
57.7493	5.01609
57.8081	4.74478
57.8709	4.76599
57.9702	4.69083
58.0395	1.1048
58.2352	0.00245887
59.3915	0.00258481
59.4377	0.00125339
60.1857	0.00137335
60.6704	0.00286202
62.2727	0.00423948
62.5275	0.0140756
62.6467	0.00358688
63.0135	8.29093
63.4309	16.4254
63.4936	16.3893
63.9031	8.13269
63.9098	0.00112804
65.5873	0.00225701
66.2984	2.25729
66.3596	2.19689
66.5559	2.18686
66.6437	2.19186
66.6476	2.17447
66.6743	2.21076
66.8062	2.19609
66.8267	2.19472
66.8367	2.19323
66.9182	2.16318
67.1107	2.15137
67.1715	2.15048
67.3797	0.0439835
67.5746	0.0289037
67.62	0.0268739
68.0044	0.0287971
68.0497	0.028236
68.2391	0.0148914
68.9689	0.00290805
70.8392	0.00522657
70.989	0.00102063
71.3344	0.00137512
71.4	0.00228383
71.6553	0.00585031
71.7735	0.00642931
71.9628	0.0129014
72.0277	0.0128673
72.0424	0.0122987
72.0955	0.0122703
72.283	0.00642124
72.4007	0.00579253
74.7127	1.23433
74.7709	1.20252
74.8993	1.15444
75.3625	1.19072
75.4848	1.10834
75.5427	1.10677
75.7842	1.91804
75.8999	1.90029
76.0333	0.00218183
76.0529	1.87531
76.2578	1.83167
76.3986	0.00343225
76.3991	1.79438
76.5145	1.77837
76.5218	0.00192228
76.5535	0.00134566
79.3569	0.00168656
79.7962	7.18761
80.6038	7.18388
81.7811	0.00118103
82.3149	0.00129775
82.3197	0.0014989
82.4582	0.00328408
82.5741	1.80984
82.9406	0.588195
83.0373	1.81847
83.1101	0.601432
83.1221	1.81904
83.1841	0.521456
83.2342	0.585706
83.2878	1.68663
83.2913	0.526155
83.3725	1.67005
83.4607	0.523621
83.8264	1.68169
84.4422	0.00117938
84.9347	0.00117282
85.3434	0.00110043
85.4915	0.00101991
87.2877	0.00282396
87.5367	0.00545375
87.6068	0.00496538
87.6766	0.00114238
87.8164	0.00364636
87.9287	0.00407146
87.9546	0.00476366
87.9966	0.00557345
88.3527	0.00584903
88.3948	0.0055401
88.4136	0.00716503
88.5258	0.00657657
88.7311	0.0056727
88.8012	0.00561771
89.4774	0.0016081
89.7341	0.00134624