File: xy_files/Mn5OF11.xy
# 2-theta (degrees)	Intensity
10.0392	76.8577
17.9179	14.4293
18.8365	50.5746
19.7354	15.7814
21.8222	66.4147
22.9268	3.53021
25.0493	3.02105
29.0067	3.56227
29.8264	0.253217
30.4357	1.93769
31.0174	93.0839
31.8128	2.24517
32.4118	7.28449
32.9621	4.58582
33.7527	1.29028
34.2801	13.4276
35.2829	32.1465
36.2937	72.8083
36.7932	15.1919
37.7464	10.7019
37.7994	0.550112
38.2075	2.85518
38.8919	0.936961
39.0925	3.68191
39.1958	3.11069
40.5632	11.2691
41.0274	0.420495
41.7122	3.99766
42.4473	1.72131
44.1368	4.54481
44.4778	5.87902
44.6304	0.38022
45.213	10.9531
45.6872	23.0496
46.4729	6.82027
47.4348	2.55509
47.5002	3.68036
47.7387	0.735089
47.9259	0.245624
48.6279	27.8358
49.2446	16.3649
49.8153	2.25105
49.8478	33.3394
50.5249	0.177422
50.6884	4.82225
50.9566	4.68792
51.3457	0.456029
51.53	2.75152
51.5839	37.8641
51.8867	0.859558
52.3392	0.648544
52.5097	1.33194
52.6409	1.32477
52.9422	4.95761
52.9899	5.07615
53.1094	2.12723
53.5649	1.45853
54.0416	1.28949
54.2568	1.58691
54.8048	3.80877
55.1306	8.73789
55.7554	2.89749
55.9437	0.0375775
57.0261	0.300538
57.4618	0.669691
57.7867	4.42033
58.029	1.77056
58.3739	0.460518
58.8021	7.02614
59.1351	0.0380768
59.4656	3.7975
59.7159	0.49414
60.1156	0.921073
60.4296	0.989269
60.5149	0.251304
60.5931	0.389739
61.3435	0.613946
61.7154	0.817333
61.8166	1.22986
61.9562	1.3099
62.5073	0.157193
62.8698	8.6884
62.9166	0.994521
62.9582	0.37234
63.2843	0.162261
63.4253	0.304988
64.0049	0.909976
64.2144	0.494579
64.4603	0.334646
64.6566	4.2272
65.3063	0.057856
65.4737	1.42184
65.7636	0.0218665
66.0413	1.16408
66.3651	0.393197
66.6097	0.525646
66.8192	1.02106
67.3995	0.505582
67.564	1.96605
67.7975	1.35532
67.86	0.112488
68.2491	1.22493
68.3594	0.860812
68.9316	0.07082
69.1009	0.603739
69.2019	1.26356
69.5425	0.529014
69.6197	2.66354
69.6655	0.189815
69.8811	1.839
70.3852	0.788974
70.4602	2.9715
70.9142	0.741701
71.2689	0.40271
71.289	0.418881
71.5924	4.09252
71.7636	1.93766
71.9639	1.05584
72.055	0.557644
72.1186	0.0421874
72.1485	1.21565
72.2207	0.475703
72.4403	1.08652
72.6397	2.46328
73.0006	0.0938204
73.1005	4.05428
73.15	0.102186
73.3123	0.0912724
73.7661	0.648125
74.0303	0.789273
74.2629	2.3768
74.5084	0.829919
74.7427	0.775036
75.1103	1.1105
75.2984	0.11135
75.5264	0.586656
75.8291	0.984877
76.111	0.351754
76.1781	2.53396
76.5854	0.143461
76.9163	0.561063
77.0347	0.0567551
77.1367	1.93412
77.5537	0.106973
78.2753	0.499519
78.3024	0.347258
78.5304	1.67369
79.0507	2.83636
79.3109	2.32773
79.6121	0.111977
79.7854	0.501356
80.1254	0.442958
80.3563	1.85395
80.4695	0.194139
80.6252	1.60146
80.7557	5.73974
80.9001	0.52869
81.1256	0.486364
81.1707	0.131431
81.2499	0.477511
81.305	0.715236
81.4241	3.86216
81.53	1.49242
81.6741	0.648427
81.8939	1.40687
82.666	0.321629
82.8027	0.588321
82.9941	0.557359
83.3797	0.144551
83.4667	2.7149
83.5107	1.52795
83.6727	1.11826
83.827	0.913514
84.0508	3.24461
84.1427	0.658743
84.2085	0.765609
84.3622	0.501817
84.9932	0.31478
85.0934	2.12631
85.5028	0.536291
85.6792	0.962426
85.7999	1.05366
85.9604	0.937086
86.2295	0.290411
86.3866	0.00509295
86.4	1.09172
86.5302	0.303605
86.7141	2.42524
86.9713	1.07664
87.2059	0.480356
87.2797	2.19197
87.6774	0.151947
87.7789	0.641299
87.8429	0.922292
88.0322	0.39646
88.0787	0.404666
88.1866	0.746674
88.4723	0.457828
88.7047	0.198837
88.7291	1.47574
88.8495	0.580064
88.952	1.42233
88.9925	0.583361
89.087	0.972244
89.1866	0.941593
89.4362	2.51662
89.8192	2.43543
89.8963	0.307819
89.9529	0.749072