File: xy_files/Mn7Fe3O20.xy
# 2-theta (degrees)	Intensity
10.9898	0.00268467
17.5057	0.00111797
18.0466	0.00837949
18.3748	52.4267
19.5055	0.00217878
20.1146	0.00474562
22.0824	0.00150885
23.7199	0.0139732
27.3843	0.00174126
30.3711	0.0362496
30.5971	0.00838736
30.6958	0.0450732
31.3193	0.0196838
32.3975	0.0042099
33.5378	0.00434997
35.117	0.0129047
35.4943	0.00664633
35.6729	12.2309
35.6871	5.71624
35.8361	0.00125448
36.0109	10.8964
36.8548	0.0184247
37.2445	4.94268
37.8005	0.00899343
38.0628	0.00836262
39.0802	0.00135634
40.2082	0.00105076
40.4413	0.00169485
41.456	0.00226311
42.5695	0.00307903
42.9312	0.00371023
43.4073	33.9316
43.6493	0.00956087
45.2317	0.0131725
45.804	0.00752729
45.9495	0.00307346
46.2212	0.00148011
47.3005	1.50675
47.3227	0.00204877
47.3955	0.00335531
47.5058	3.69293
47.7602	2.82883
47.9469	0.00652114
48.1134	3.41888
48.4625	0.00679903
48.5404	0.00165561
49.0083	0.0105086
49.4554	0.00196859
49.8968	0.00515804
50.4003	0.004927
50.7361	0.00684757
51.0492	0.00334911
51.3312	0.00746571
51.6137	0.00432287
51.9339	0.00261273
52.5751	0.00582075
53.0857	0.00637747
53.7069	0.00202259
53.7261	0.0032209
54.3052	0.00167476
54.37	0.00515046
54.3952	0.00348883
55.0234	0.0014778
55.2681	0.00272925
55.6328	0.00307999
55.7611	0.00189541
56.062	0.00336426
56.6086	0.00173696
57.2391	0.437742
57.4077	2.67481
57.4584	5.22897
57.6172	0.00192478
57.8499	4.91992
58.0236	0.00397364
58.6692	0.00238465
59.3204	0.00163138
59.8624	0.0030059
60.4801	0.00148461
61.0868	0.00135887
62.5117	0.00241358
62.7131	0.00139436
62.8554	0.00277097
63.1872	17.4825
63.3245	0.00505558
63.7632	0.00210802
64.1953	0.00177054
64.3335	0.0108281
65.2212	0.00109502
65.3462	0.00435966
65.399	0.00604576
66.042	2.3767
66.1202	0.00637867
66.302	2.29204
66.3332	2.27553
66.4316	0.00187929
66.5126	2.26525
66.6992	2.341
67.0228	0.00124999
67.0736	0.0310616
67.1314	2.23128
67.2381	0.0258159
67.737	0.00254355
67.8345	0.0274034
68.2115	0.0087752
68.7565	0.00522316
69.3526	0.00862094
69.5648	0.00757233
70.0252	0.0011824
70.0681	0.00108333
71.4585	0.0113542
71.6049	0.0123807
71.8548	0.0108249
72.5191	0.00111406
73.9041	0.00387865
74.3664	1.33179
74.4461	0.609456
74.9898	0.00288365
75.0849	1.25179
75.3744	0.00461805
75.4174	1.15859
75.5557	2.03987
75.5609	0.00476796
75.7345	0.00697358
75.8486	1.92153
76.3615	1.87342
76.4403	0.00141133
76.72	0.00195672
77.9474	0.00156124
78.3755	0.00261652
78.9688	0.0023849
79.3425	3.82189
79.5518	0.00147557
80.442	7.61014
81.0622	0.00103186
82.1519	0.00281198
82.1789	0.941341
82.5038	0.00175747
82.6213	0.00270887
82.644	1.93455
82.6818	1.92371
82.7703	0.65601
82.8346	0.00101544
83.0101	1.72332
83.2399	0.542368
83.527	0.00149448
83.7087	0.00392358
83.845	1.74029
84.2964	0.00161811
84.8562	0.00396906
85.1019	0.00483386
85.29	0.0011533
85.8045	0.00144231
86.0607	0.00320974
86.8353	0.00136028
87.0652	0.00163702
87.1535	0.00411395
87.2525	0.0015147
87.4127	0.00400397
87.4577	0.00430916
87.4708	0.00371078
87.8825	0.00335496
87.9677	0.00306577
88.2381	0.00959861
88.573	0.00217878
88.6968	0.00200636
88.7381	0.00535731
88.8261	0.00213092
89.2194	0.00338103
89.7677	0.0017888
89.8103	0.00122343