File: xy_files/Mn7O12.xy
# 2-theta (degrees)	Intensity
17.3643	25.5333
24.6526	8.4215
30.3131	11.8279
35.1441	100.0
39.4541	10.8215
43.4012	0.434375
47.0792	6.541
50.5493	30.1345
53.8543	4.80589
57.0254	3.73251
60.0864	3.75148
63.0559	50.6723
65.9491	2.23438
71.5546	2.23374
74.2865	12.8337
76.9822	2.8194
79.6488	0.568344
82.293	1.6153
84.9207	15.6577
87.5378	1.19341