File: xy_files/Mn9(FeO6)4.xy
# 2-theta (degrees)	Intensity
7.08518	10.286
15.4064	3.22905
15.4567	1.91091
18.415	100.0
21.2847	3.00494
22.4375	3.02226
23.2997	0.890973
23.404	1.14895
25.7161	1.63815
29.2172	0.617367
29.3356	0.662248
30.2886	1.06402
30.3868	1.17217
31.1401	0.33477
33.5551	0.606037
33.6817	0.20343
34.1336	0.568574
34.1904	0.570094
35.6611	18.2442
35.7248	9.54994
35.7726	17.7514
35.8858	0.186697
35.9985	0.289053
37.3283	11.7825
38.5239	0.406565
38.5903	0.274093
42.0783	0.149136
42.1316	0.0832435
42.2754	0.0953619
42.551	0.311325
42.6409	0.178061
42.7202	0.307565
43.3518	72.8192
43.9616	0.22402
45.7984	0.178434
46.2221	0.316803
46.3545	0.114802
47.4763	2.92855
47.4891	2.86754
47.59	3.50079
47.6779	2.63324
47.8629	0.0802765
48.754	0.0777807
48.8712	0.0985511
49.0029	0.112494
49.322	0.0643174
49.4414	0.104457
49.7836	0.151855
49.9459	0.225549
50.0403	0.122923
51.0417	0.15568
51.1794	0.122084
52.6898	0.216364
53.1092	0.114601
53.1428	0.20567
53.2785	0.118218
53.3699	0.229916
53.7814	0.133153
53.837	0.0365291
53.9657	0.10555
56.039	0.0489291
56.2712	0.184488
56.3219	0.157903
57.2974	7.4278
57.3411	0.941114
57.3747	1.88533
57.4533	0.164324
57.4733	0.357277
57.5318	0.241781
57.606	1.18768
57.6692	0.362657
59.2504	0.051741
59.3644	0.174853
59.4375	0.0981338
59.5085	0.108783
59.6869	0.0822193
60.6772	0.115163
61.9945	0.159248
62.0979	0.214594
62.3225	0.0591132
62.3734	0.0386055
62.4531	0.0630692
62.681	0.0559143
63.0004	23.7525
63.223	23.653
63.5156	0.0531373
63.6259	0.0527373
64.8459	0.0948455
65.0825	0.0518318
65.2014	0.0859072
65.3679	0.0609174
65.527	0.0468569
66.1435	2.17985
66.1906	2.18691
66.2547	2.07268
66.3428	2.17614
66.363	2.26673
66.4782	2.1118
67.2399	0.125411
67.293	0.0808002
67.3219	0.14284
67.508	0.0349595
67.617	0.101992
67.8613	0.0485517
68.0346	0.0676103
68.1175	0.0637096
68.1467	0.0539336
68.2956	0.0599043
69.1198	0.0147283
69.226	0.0181895
70.5235	0.0345494
70.8207	0.0233554
70.8755	0.056904
70.885	0.073017
71.068	0.0644448
71.165	0.0411509
71.4176	0.016708
71.5746	0.0148941
71.8225	0.0171132
71.8849	0.0617375
72.0192	0.0660205
73.2779	0.0423759
73.3123	0.0744168
73.4284	0.0814029
73.6746	0.0587091
73.7858	0.106538
73.9299	0.0225769
74.0213	0.00642009
74.4886	1.93863
74.5659	1.84199
74.5946	0.144275
74.6512	0.00172864
74.8003	0.136477
74.9573	0.930384
75.4637	2.31995
75.5663	2.33628
75.7322	2.26069
75.9878	1.128
76.3254	0.0153961
76.3331	0.0112038
76.5543	0.00779923
78.59	0.0392088
78.6359	0.0306325
78.8706	0.166321
78.9764	0.033154
79.0691	0.0326521
79.5384	4.00304
79.9419	4.02305
80.0942	0.0490763
80.2344	0.0777802
80.4378	0.0470945
81.5917	0.0513025
81.6531	0.0729831
81.7039	0.011335
81.7749	0.0174865
81.8327	0.0149156
81.9996	0.0852462
82.1299	0.00898981
82.4503	0.630104
82.5254	0.506398
82.5501	1.79359
82.5747	0.941384
82.6033	0.590328
82.7323	0.0264847
82.8002	1.86334
82.9094	1.5693
82.9686	0.283505
83.4661	0.10581
83.6141	0.100784
83.8176	0.140114
83.9136	0.0721545
84.091	0.11026
84.166	0.056936
84.2318	0.0644069
84.2543	0.044179
84.2948	0.0250045
84.3848	0.0387199
84.4478	0.0385546
84.6864	0.0605099
85.1612	0.0757881
85.2846	0.075217
85.4506	0.0705785
85.7103	0.0346419
86.7995	0.0839381
86.8864	0.0269602
87.0638	0.0455913
87.3122	0.0627584
87.3817	0.0660664
87.4353	0.0580283
87.5722	0.0634376
87.6837	0.0681687
87.7909	0.0745838
89.1432	0.109424
89.3942	0.0139632
89.4905	0.0843276
89.5548	0.0568492
89.5833	0.0202061
89.6432	0.0491146
89.836	0.0558403
89.9526	0.0981494