File: xy_files/Mn9FeO10.xy
# 2-theta (degrees)	Intensity
8.53409	0.155179
12.9683	0.018843
13.9584	0.0249802
16.9866	0.0148309
17.116	0.0390269
19.2128	0.00565234
23.6365	0.0174703
25.7959	0.0142999
28.8607	0.0023471
32.7943	0.00288816
34.3573	23.3957
34.3616	23.3821
34.4333	0.00666816
34.4664	0.00991785
34.4839	46.3541
34.6295	0.00174668
36.5691	0.00875821
36.7128	0.00556198
38.12	0.00817618
38.6915	0.0066371
38.9939	0.0090663
39.6059	0.011366
39.7231	0.00453227
39.7848	51.0566
40.0421	100.0
40.5932	0.00969429
40.8123	0.00164619
40.8843	0.010218
42.4192	0.00633753
42.7571	0.00231911
42.8672	0.0090117
43.1713	0.00293905
44.4618	0.00282695
46.8004	0.0409519
47.4698	0.0017583
48.3615	0.00444833
48.5136	0.0165078
51.8162	0.00170261
51.9685	0.00130846
52.7471	0.00351007
52.8423	0.0026591
53.0299	0.00295192
54.4533	0.0140941
54.771	0.0034626
55.2688	0.00293135
56.5863	0.00330219
57.7193	29.4793
57.725	29.451
57.7511	14.6674
58.083	14.4335
58.1609	0.00122304
58.8274	0.00259771
60.0555	0.00121522
60.1097	0.00266537
60.323	0.00744222
60.5788	0.00254376
60.6841	0.0018845
61.0268	0.00243128
61.5693	0.018001
61.6331	0.00271737
62.8676	0.00599001
62.9916	0.0054946
63.5896	0.00198626
64.5391	0.012178
64.5934	0.00194081
65.4002	0.00431806
65.9415	0.00651
66.6678	0.0112182
67.2737	0.00324835
67.3666	0.00104582
67.5045	0.0153135
68.5505	0.00525152
68.7473	3.06581
68.7551	3.06238
68.8266	6.11179
69.0271	6.04853
69.0323	6.04401
69.1294	0.00693831
69.2541	5.99957
69.2567	5.99733
71.3882	0.00148894
71.5765	0.00199805
71.9882	0.00179858
72.0261	0.00145179
72.1875	0.00258601
72.3274	0.00288327
72.4141	6.74604
72.4242	6.73467
72.5942	0.00319979
72.7139	13.354
72.9093	0.0053046
73.4577	0.00371521
74.519	0.00219258
74.8336	0.00347158
75.0515	0.00115887
75.6658	0.00200907
75.7154	0.00162734
76.6441	0.00197132
77.3835	0.00756707
77.9083	0.00476634
77.9814	0.00324647
78.7338	0.00722233
78.8652	0.00212849
78.9811	0.00602549
79.9083	0.0016111
79.9725	0.00939496
80.1617	0.00179615
80.9689	0.00236409
81.0765	0.00167048
82.3743	0.00127818
82.5253	0.00160844
82.6457	0.00758846
82.6875	0.0011643
82.9872	0.00194274
83.5109	0.00127026
83.6488	0.00103767
83.942	0.00173387
84.0796	0.0018663
85.4184	0.00192701
85.4476	0.00193132
85.6087	0.00256551
85.767	4.09102
86.4288	8.00212
86.7402	0.00302667
88.1908	0.013248
88.4148	0.00102913
88.6173	0.00462397
88.6768	0.00102701
88.8588	0.00147668
89.1864	0.00213853
89.389	0.00174473