File: xy_files/MnFeO4.xy
# 2-theta (degrees)	Intensity
18.581	59.8392
18.8434	19.879
21.8134	30.9306
30.3339	0.0404401
30.8539	59.3207
30.9941	58.3132
35.9527	100.0
36.3807	20.5874
36.4215	7.79654
36.563	49.4265
37.6745	0.164589
38.2221	0.417581
43.9193	10.2073
44.4719	4.78113
47.6182	3.89669
48.218	0.060328
48.5557	6.33541
48.6357	0.0214229
49.5552	13.9669
49.9337	0.124776
54.2202	11.1052
54.7818	19.0236
55.046	10.368
55.1929	0.0214284
57.9075	4.11526
57.9361	2.12559
58.403	31.696
58.784	2.48521
58.8258	7.206
58.8824	14.7653
63.1031	13.6391
64.284	48.5631
64.6035	11.6357
66.4973	0.805915
67.1646	2.5326
67.6176	2.1693
67.6205	0.390254
67.6729	1.19241
67.8672	2.8381
67.9457	3.19182
68.2926	0.066605
69.0156	0.0403264
69.0668	1.57082
69.1705	1.69608
71.9644	8.36202
72.5957	4.27142
73.0236	0.00420057
73.4013	4.04531
75.1915	10.168
75.8501	1.21506
76.2311	0.0168758
76.4937	1.4901
76.6301	4.33061
77.2689	0.205918
77.713	0.198212
80.4457	0.884925
81.8089	0.634137
82.7352	0.88031
83.4983	0.0209314
84.091	1.3135
84.1641	1.86469
84.587	1.509
84.8522	0.511808
84.9136	0.445354
84.9981	0.00931777
85.1638	0.0320843
85.6468	1.90442
87.8762	2.40718
88.6705	0.0107408
89.3204	2.2456
89.6808	9.4335
89.8969	2.32712
89.9939	2.31115