File: xy_files/MnFeO2.xy
# 2-theta (degrees)	Intensity
20.126	0.115492
28.6343	0.107913
35.2507	96.1008
40.9089	50.1211
40.9403	100.0
46.0261	0.0666575
50.695	0.0506825
59.2599	57.8548
59.2839	28.8867
63.228	0.00642509
63.2741	0.0256411
67.14	0.0212649
70.8442	12.359
70.8878	24.673
74.5417	26.5277
78.1217	0.0135091
81.7071	0.0239521
88.6817	4.06635
88.764	8.11533