File: xy_files/MnFeO3.xy
# 2-theta (degrees)	Intensity
18.5367	0.364952
18.5741	0.238277
18.6383	0.685725
22.7816	6.8023
22.8047	4.10496
22.8443	4.72302
26.3586	0.00660295
26.4047	0.0158901
26.4314	0.0125149
32.479	100.0
35.1077	0.314926
35.1336	0.496384
35.1344	0.190134
35.1758	0.0518802
35.2047	0.0321391
35.2202	0.152063
37.5819	5.78642
37.66	5.93301
37.7939	6.1069
39.9729	0.891479
40.0423	0.498238
40.1616	0.519376
42.235	0.278642
42.2654	0.244481
42.2881	0.102456
42.3362	0.195402
42.4097	0.155567
42.4274	0.187039
44.469	2.69464
44.5055	3.29546
44.5268	3.62064
46.532	0.710443
46.5812	0.431916
46.6657	0.525309
48.5341	2.57902
48.5619	1.82158
48.5888	2.64222
48.6483	1.73972
48.6643	1.68981
48.696	2.04856
52.3704	0.388169
52.3898	0.675926
52.4493	0.680699
52.48	0.373461
52.6042	0.511489
52.6154	0.58264
54.2583	13.3402
54.3592	12.697
54.4178	14.5051
56.1318	0.850329
56.1569	0.489423
56.2001	0.594352
57.7859	0.291301
57.8805	0.0248908
57.9125	0.0771964
57.953	0.150733
57.9951	0.101277
58.1298	0.152377
59.539	1.32892
59.5948	0.202236
59.6245	0.0984832
59.6501	0.144306
59.6599	0.969854
59.697	0.517776
59.7746	0.304373
59.7918	0.232731
59.8673	1.12458
61.2495	0.198077
61.2728	0.561345
61.3581	0.306485
61.395	0.0932713
61.5679	0.0769677
61.5815	0.253991
62.9806	0.827399
63.0107	1.6054
63.0668	1.2452
63.1469	0.993398
63.1485	1.27128
63.1986	1.05755
64.6243	6.81454
64.7297	8.24164
64.9108	7.88767
66.2481	0.961388
66.2929	1.15122
66.336	1.14115
66.4067	0.811665
66.5315	0.810668
66.5574	0.92257
68.0157	3.4918
69.5492	0.185632
69.5778	0.185934
69.5875	0.0920763
69.6383	0.20519
69.6652	0.289876
69.6875	0.111852
71.0505	0.139804
71.1135	0.555765
71.1371	0.635712
71.2504	0.0492714
71.3082	0.0513655
71.3585	0.491889
72.5858	0.820444
72.6019	0.0674913
72.6693	0.25609
72.6768	0.0237558
72.7262	0.153497
72.7516	0.683995
72.7535	0.109589
72.7894	0.0305688
72.8549	0.0715653
72.8982	0.182076
72.9834	0.914501
72.9927	0.0817408
74.1994	0.544187
74.2613	0.0132605
74.2633	0.179645
74.3623	0.322258
74.4315	0.507608
74.4686	0.0914581
78.765	0.0374738
78.7888	0.240477
78.7911	0.0964658
78.8222	0.259281
78.8864	0.046541
78.914	0.35053
78.9277	0.0157437
79.0048	0.128529
79.0202	0.161736
79.0776	0.242459
79.1211	0.00634044
79.1363	0.0451339
80.2164	0.905651
80.4098	1.43648
80.7419	1.24542
81.7325	0.682695
81.7777	0.146639
81.8552	0.213647
81.8769	0.252058
81.9221	0.758874
81.9274	0.0500717
81.974	0.0701339
81.9996	0.14867
82.0011	0.106255
82.1251	0.248827
82.1702	0.156336
82.2477	0.702912
83.2325	0.591592
83.2531	0.287027
83.399	0.280991
83.4124	0.131103
83.4451	0.375131
83.4589	0.113668
83.562	0.0787418
83.7422	0.396494
83.7542	0.176015
84.863	0.489092
84.8959	0.370312
84.9453	0.441843
85.026	0.353543
85.0347	0.486537
85.0825	0.372762
86.2504	0.732349
86.3135	0.0546634
86.4295	0.33575
86.6056	0.00491294
86.7373	0.423814
87.7294	0.179375
87.7703	0.213208
87.8151	0.166806
87.8509	0.15285
87.8933	0.191237
87.9134	0.236048
87.9581	0.178652
87.9701	0.167188
88.1183	0.226637
88.1392	0.163292
88.216	0.218564
88.2399	0.196234
89.3209	1.88537
89.4847	1.79437
89.58	2.27773