File: xy_files/MnFe4O5.xy
# 2-theta (degrees)	Intensity
17.4918	0.139612
24.4736	0.0943162
35.1475	90.1323
35.4086	0.0199733
39.7537	100.0
42.8541	39.4884
43.5151	0.023271
46.6188	0.0228389
50.7494	0.0128954
50.9439	0.00975896
56.7612	0.0110328
57.3005	0.0309476
57.4795	29.4066
59.8749	51.0369
66.4917	0.0129728
67.8935	0.00510603
68.705	0.00654103
69.1897	24.7563
73.5099	10.3349
74.2947	24.5374
74.764	0.0126901
74.9203	0.00106136
77.6476	0.00914156
78.9673	0.00416176
82.4165	0.0131844
84.3248	0.00236806
85.5358	0.00537279
85.6871	8.07859
89.6327	0.00743292