File: xy_files/MnO2.xy
# 2-theta (degrees)	Intensity
19.2687	100.0
36.4777	0.485611
36.9252	21.0639
38.6709	22.5086
39.1111	2.82075
39.9377	6.00802
43.1641	5.80784
45.0851	23.2678
49.4556	21.0199
51.8765	1.37834
57.1346	0.207442
59.9568	13.132
60.2755	1.10039
65.3588	13.9433
65.9654	9.27269
68.8436	13.5868
69.1491	0.228461
75.8832	0.417837
77.2309	0.0267026
77.505	2.31978
78.5986	2.57412
78.8803	2.6389
79.416	0.40929
79.443	4.04868
81.5856	0.477992
82.9353	3.26672
84.0478	1.4193
86.1599	3.48968
86.9905	2.65701
88.0347	0.182451